"BIO-KINE ASCII FILE"
"_COMMENT"	"MOS-500 Spectrometer"
"_COMMENT"	"Kinetics measurement"
"_COMMENT"	"Y Unit : Volt,  X Unit : s"
"_COMMENT"	"Excitation wavelength : 380 nm"
"_COMMENT"	"Fentes bandwidth =  1 nm"
"_COMMENT"	"HV= 1000V"
"_COMMENT"	"Timebase  1 =  .01 s   5001 pts"
"_SFM"	"SFM-400 /S  Advanced mode"
"_SFM"	"Ratio : S1: 2.5, S2: 0, S3: 0, S4: 1"
"_SFM"	"Content : S1: , S2: , S3: , S4:"
"_SFM"	"Concentration : S1: , S2: , S3: , S4:"
"_SFM"	"Total volume : 209 µl  Flow : 3.5 mL/s"
"_SFM"	"Acquisition start :  10 ms before stop"
"_SFM"	"cuve=FC-15, s1=10 ml , s2=10 ml , s3=10 ml , s4=1.9 ml"
"_UNITX"	"s"
"_UNITY"	"Volt"
"_DELTAX"	0
"_DATA"
1e-300	2.62421
0.01	2.63474
0.02	2.62191
0.03	2.65513
0.04	2.70546
0.05	2.69987
0.06	2.7331
0.07	2.72849
0.08	2.77093
0.09	2.76698
0.1	2.80613
0.11	2.78869
0.12	2.80974
0.13	2.82356
0.14	2.81764
0.15	2.80678
0.16	2.79856
0.17	2.81271
0.18	2.81073
0.19	2.82619
0.2	2.8331
0.21	2.84659
0.22	2.81599
0.23	2.83277
0.24	2.81632
0.25	2.84659
0.26	2.84034
0.27	2.85054
0.28	2.84132
0.29	2.83409
0.3	2.83343
0.31	2.83146
0.32	2.83014
0.33	2.82389
0.34	2.82685
0.35	2.85251
0.36	2.83277
0.37	2.84692
0.38	2.84231
0.39	2.83475
0.4	2.85975
0.41	2.83573
0.42	2.84922
0.43	2.84988
0.44	2.83705
0.45	2.84725
0.46	2.83672
0.47	2.82817
0.48	2.86271
0.49	2.84165
0.5	2.85317
0.51	2.84988
0.52	2.83376
0.53	2.83869
0.54	2.81994
0.55	2.84889
0.56	2.83639
0.57	2.841
0.58	2.83014
0.59	2.85547
0.6	2.86567
0.61	2.85744
0.62	2.83113
0.63	2.84034
0.64	2.83014
0.65	2.81073
0.66	2.81961
0.67	2.81435
0.68	2.83507
0.69	2.80415
0.7	2.82323
0.71	2.84363
0.72	2.82521
0.73	2.85975
0.74	2.87948
0.75	2.8706
0.76	2.81238
0.77	2.84593
0.78	2.85382
0.79	2.80415
0.8	2.8354
0.81	2.8206
0.82	2.8229
0.83	2.84297
0.84	2.7979
0.85	2.80876
0.86	2.85942
0.87	2.85514
0.88	2.84856
0.89	2.86304
0.9	2.84363
0.91	2.8229
0.92	2.84461
0.93	2.84626
0.94	2.82521
0.95	2.81896
0.96	2.83803
0.97	2.85317
0.98	2.82553
0.99	2.81402
1	2.83113
1.01	2.81698
1.02	2.83244
1.03	2.85646
1.04	2.82488
1.05	2.83014
1.06	2.83014
1.07	2.83639
1.08	2.82521
1.09	2.80843
1.1	2.83277
1.11	2.83902
1.12	2.81665
1.13	2.81994
1.14	2.81238
1.15	2.841
1.16	2.80448
1.17	2.78211
1.18	2.80711
1.19	2.81402
1.2	2.84198
1.21	2.82224
1.22	2.81698
1.23	2.82751
1.24	2.83738
1.25	2.83014
1.26	2.83014
1.27	2.80547
1.28	2.80185
1.29	2.81205
1.3	2.83705
1.31	2.81238
1.32	2.80086
1.33	2.8206
1.34	2.82685
1.35	2.84231
1.36	2.82652
1.37	2.84461
1.38	2.82915
1.39	2.80645
1.4	2.8479
1.41	2.82126
1.42	2.81896
1.43	2.81797
1.44	2.82521
1.45	2.85514
1.46	2.81797
1.47	2.82553
1.48	2.8206
1.49	2.78178
1.5	2.81402
1.51	2.82521
1.52	2.81007
1.53	2.82652
1.54	2.8058
1.55	2.84264
1.56	2.82718
1.57	2.85218
1.58	2.83211
1.59	2.81665
1.6	2.84823
1.61	2.83475
1.62	2.841
1.63	2.82685
1.64	2.8104
1.65	2.83047
1.66	2.83376
1.67	2.83376
1.68	2.81764
1.69	2.84396
1.7	2.83639
1.71	2.82521
1.72	2.81567
1.73	2.82027
1.74	2.80645
1.75	2.79889
1.76	2.81731
1.77	2.82126
1.78	2.79593
1.79	2.81896
1.8	2.78672
1.81	2.79066
1.82	2.82817
1.83	2.79757
1.84	2.78902
1.85	2.79724
1.86	2.82422
1.87	2.82553
1.88	2.8104
1.89	2.82553
1.9	2.81402
1.91	2.8229
1.92	2.82159
1.93	2.81797
1.94	2.81501
1.95	2.82882
1.96	2.81007
1.97	2.83113
1.98	2.83277
1.99	2.7956
2	2.81567
2.01	2.81961
2.02	2.8104
2.03	2.81172
2.04	2.79757
2.05	2.77586
2.06	2.82619
2.07	2.8183
2.08	2.84593
2.09	2.83014
2.1	2.82685
2.11	2.83047
2.12	2.85481
2.13	2.84132
2.14	2.82224
2.15	2.81599
2.16	2.8229
2.17	2.78145
2.18	2.81599
2.19	2.84231
2.2	2.81665
2.21	2.80909
2.22	2.8081
2.23	2.82093
2.24	2.8433
2.25	2.84692
2.26	2.84659
2.27	2.83507
2.28	2.8229
2.29	2.81106
2.3	2.79955
2.31	2.8229
2.32	2.85942
2.33	2.79461
2.34	2.7627
2.35	2.79132
2.36	2.80843
2.37	2.80843
2.38	2.78606
2.39	2.82455
2.4	2.8081
2.41	2.81534
2.42	2.8206
2.43	2.85613
2.44	2.80613
2.45	2.80415
2.46	2.81139
2.47	2.82586
2.48	2.81632
2.49	2.80152
2.5	2.76665
2.51	2.78869
2.52	2.79527
2.53	2.83803
2.54	2.85613
2.55	2.81435
2.56	2.80613
2.57	2.79724
2.58	2.77882
2.59	2.79527
2.6	2.80744
2.61	2.81139
2.62	2.79724
2.63	2.80777
2.64	2.79034
2.65	2.82159
2.66	2.8058
2.67	2.81435
2.68	2.81271
2.69	2.81336
2.7	2.81238
2.71	2.80119
2.72	2.8081
2.73	2.82159
2.74	2.80086
2.75	2.80876
2.76	2.80744
2.77	2.78178
2.78	2.8183
2.79	2.79724
2.8	2.79889
2.81	2.80317
2.82	2.7979
2.83	2.78113
2.84	2.78606
2.85	2.79198
2.86	2.78902
2.87	2.79034
2.88	2.79856
2.89	2.80218
2.9	2.80481
2.91	2.80711
2.92	2.7808
2.93	2.81402
2.94	2.81764
2.95	2.78902
2.96	2.79823
2.97	2.78047
2.98	2.79066
2.99	2.8081
3	2.78507
3.01	2.81369
3.02	2.82257
3.03	2.80152
3.04	2.78244
3.05	2.7877
3.06	2.83113
3.07	2.82192
3.08	2.7933
3.09	2.81336
3.1	2.78211
3.11	2.77422
3.12	2.76764
3.13	2.78606
3.14	2.77915
3.15	2.76599
3.16	2.75843
3.17	2.78474
3.18	2.80777
3.19	2.78145
3.2	2.78343
3.21	2.80086
3.22	2.80843
3.23	2.81731
3.24	2.81567
3.25	2.79626
3.26	2.80185
3.27	2.80744
3.28	2.79001
3.29	2.79231
3.3	2.78606
3.31	2.80284
3.32	2.81731
3.33	2.80645
3.34	2.79165
3.35	2.81106
3.36	2.78441
3.37	2.81632
3.38	2.81534
3.39	2.80514
3.4	2.78738
3.41	2.76172
3.42	2.78639
3.43	2.79494
3.44	2.81797
3.45	2.80711
3.46	2.80777
3.47	2.80777
3.48	2.77356
3.49	2.78376
3.5	2.74823
3.51	2.76237
3.52	2.77027
3.53	2.81303
3.54	2.80284
3.55	2.79165
3.56	2.79724
3.57	2.77093
3.58	2.77323
3.59	2.77619
3.6	2.77619
3.61	2.79066
3.62	2.78803
3.63	2.80909
3.64	2.80218
3.65	2.78606
3.66	2.77718
3.67	2.80909
3.68	2.79757
3.69	2.77948
3.7	2.78014
3.71	2.78441
3.72	2.79626
3.73	2.76895
3.74	2.79034
3.75	2.78738
3.76	2.78474
3.77	2.75711
3.78	2.77389
3.79	2.81303
3.8	2.77586
3.81	2.80349
3.82	2.80119
3.83	2.78639
3.84	2.74955
3.85	2.77224
3.86	2.78178
3.87	2.8285
3.88	2.81731
3.89	2.77126
3.9	2.77652
3.91	2.79001
3.92	2.79297
3.93	2.7604
3.94	2.77685
3.95	2.77784
3.96	2.7854
3.97	2.82619
3.98	2.81731
3.99	2.76895
4	2.78441
4.01	2.79297
4.02	2.80185
4.03	2.81665
4.04	2.75382
4.05	2.77981
4.06	2.79626
4.07	2.80119
4.08	2.79692
4.09	2.77685
4.1	2.7502
4.11	2.78277
4.12	2.78935
4.13	2.79757
4.14	2.78803
4.15	2.78211
4.16	2.77356
4.17	2.77915
4.18	2.73145
4.19	2.74132
4.2	2.78277
4.21	2.76928
4.22	2.76402
4.23	2.75908
4.24	2.80448
4.25	2.79428
4.26	2.80744
4.27	2.80909
4.28	2.78507
4.29	2.75843
4.3	2.78968
4.31	2.77126
4.32	2.77422
4.33	2.78705
4.34	2.80349
4.35	2.81007
4.36	2.80876
4.37	2.75908
4.38	2.76566
4.39	2.77882
4.4	2.80876
4.41	2.79922
4.42	2.76698
4.43	2.7752
4.44	2.7604
4.45	2.78836
4.46	2.77093
4.47	2.79264
4.48	2.79363
4.49	2.7831
4.5	2.79626
4.51	2.80711
4.52	2.75612
4.53	2.8081
4.54	2.79988
4.55	2.80909
4.56	2.79231
4.57	2.77356
4.58	2.73836
4.59	2.77224
4.6	2.79198
4.61	2.77882
4.62	2.77882
4.63	2.79527
4.64	2.77422
4.65	2.76468
4.66	2.79264
4.67	2.79165
4.68	2.78836
4.69	2.79461
4.7	2.79132
4.71	2.80086
4.72	2.77027
4.73	2.75777
4.74	2.77027
4.75	2.76599
4.76	2.78738
4.77	2.76106
4.78	2.77191
4.79	2.76566
4.8	2.73704
4.81	2.76139
4.82	2.78869
4.83	2.78441
4.84	2.77455
4.85	2.79132
4.86	2.82126
4.87	2.81896
4.88	2.75941
4.89	2.75119
4.9	2.78244
4.91	2.78113
4.92	2.78507
4.93	2.76468
4.94	2.79692
4.95	2.7627
4.96	2.75744
4.97	2.74856
4.98	2.77751
4.99	2.77126
5	2.79264
5.01	2.79297
5.02	2.81369
5.03	2.77849
5.04	2.75218
5.05	2.75843
5.06	2.77224
5.07	2.79428
5.08	2.79626
5.09	2.76895
5.1	2.75382
5.11	2.72454
5.12	2.79066
5.13	2.77553
5.14	2.76797
5.15	2.77455
5.16	2.76566
5.17	2.76566
5.18	2.76106
5.19	2.76172
5.2	2.79494
5.21	2.78047
5.22	2.7627
5.23	2.76928
5.24	2.76468
5.25	2.79659
5.26	2.77718
5.27	2.77586
5.28	2.75481
5.29	2.77027
5.3	2.79001
5.31	2.75941
5.32	2.78211
5.33	2.74724
5.34	2.7729
5.35	2.82586
5.36	2.80876
5.37	2.79823
5.38	2.74461
5.39	2.74033
5.4	2.79395
5.41	2.77027
5.42	2.76797
5.43	2.74922
5.44	2.74955
5.45	2.78738
5.46	2.77093
5.47	2.75382
5.48	2.75777
5.49	2.75218
5.5	2.79001
5.51	2.77586
5.52	2.77553
5.53	2.77224
5.54	2.76106
5.55	2.75908
5.56	2.7808
5.57	2.78705
5.58	2.75744
5.59	2.72257
5.6	2.77586
5.61	2.79395
5.62	2.76073
5.63	2.80415
5.64	2.78606
5.65	2.72948
5.66	2.7604
5.67	2.7808
5.68	2.77389
5.69	2.77323
5.7	2.77455
5.71	2.75843
5.72	2.79363
5.73	2.76501
5.74	2.77784
5.75	2.7956
5.76	2.78836
5.77	2.80514
5.78	2.76895
5.79	2.79856
5.8	2.77487
5.81	2.76007
5.82	2.79231
5.83	2.75777
5.84	2.7331
5.85	2.75777
5.86	2.76468
5.87	2.76994
5.88	2.77323
5.89	2.78507
5.9	2.80349
5.91	2.76205
5.92	2.77784
5.93	2.78244
5.94	2.7558
5.95	2.75612
5.96	2.77619
5.97	2.7979
5.98	2.77948
5.99	2.78672
6	2.79165
6.01	2.76764
6.02	2.75283
6.03	2.78803
6.04	2.75941
6.05	2.73836
6.06	2.78376
6.07	2.7877
6.08	2.77027
6.09	2.78376
6.1	2.78672
6.11	2.7877
6.12	2.77553
6.13	2.79363
6.14	2.77356
6.15	2.72553
6.16	2.7558
6.17	2.78836
6.18	2.78343
6.19	2.79198
6.2	2.75711
6.21	2.78409
6.22	2.81007
6.23	2.76797
6.24	2.76237
6.25	2.73639
6.26	2.74001
6.27	2.7831
6.28	2.79692
6.29	2.75711
6.3	2.75876
6.31	2.72816
6.32	2.7331
6.33	2.79428
6.34	2.79165
6.35	2.77455
6.36	2.76501
6.37	2.77816
6.38	2.76336
6.39	2.76731
6.4	2.79034
6.41	2.78047
6.42	2.74527
6.43	2.76928
6.44	2.77619
6.45	2.77389
6.46	2.75843
6.47	2.74099
6.48	2.76632
6.49	2.7752
6.5	2.77685
6.51	2.78573
6.52	2.7683
6.53	2.78211
6.54	2.77915
6.55	2.7729
6.56	2.76501
6.57	2.7627
6.58	2.77455
6.59	2.77586
6.6	2.80251
6.61	2.75514
6.62	2.74461
6.63	2.7581
6.64	2.77619
6.65	2.7581
6.66	2.75843
6.67	2.75711
6.68	2.7581
6.69	2.80974
6.7	2.77882
6.71	2.77487
6.72	2.7627
6.73	2.77652
6.74	2.77586
6.75	2.76534
6.76	2.78639
6.77	2.79823
6.78	2.76862
6.79	2.77093
6.8	2.74955
6.81	2.72915
6.82	2.76961
6.83	2.76566
6.84	2.73737
6.85	2.73869
6.86	2.74132
6.87	2.74066
6.88	2.75744
6.89	2.77849
6.9	2.76764
6.91	2.75876
6.92	2.74658
6.93	2.7808
6.94	2.73704
6.95	2.75251
6.96	2.75843
6.97	2.75711
6.98	2.77685
6.99	2.74165
7	2.73902
7.01	2.76566
7.02	2.77389
7.03	2.75086
7.04	2.74264
7.05	2.75974
7.06	2.77981
7.07	2.74593
7.08	2.74889
7.09	2.75119
7.1	2.76632
7.11	2.77224
7.12	2.75086
7.13	2.73737
7.14	2.76172
7.15	2.79363
7.16	2.7933
7.17	2.79198
7.18	2.78902
7.19	2.75777
7.2	2.77487
7.21	2.74658
7.22	2.71336
7.23	2.75382
7.24	2.76468
7.25	2.77915
7.26	2.76369
7.27	2.77981
7.28	2.80843
7.29	2.78606
7.3	2.7729
7.31	2.77948
7.32	2.7456
7.33	2.73079
7.34	2.78376
7.35	2.7933
7.36	2.74461
7.37	2.75876
7.38	2.74099
7.39	2.73672
7.4	2.75843
7.41	2.78902
7.42	2.76303
7.43	2.75908
7.44	2.75448
7.45	2.74889
7.46	2.76731
7.47	2.77027
7.48	2.74658
7.49	2.74264
7.5	2.76501
7.51	2.79198
7.52	2.74593
7.53	2.74297
7.54	2.72915
7.55	2.7377
7.56	2.75645
7.57	2.73935
7.58	2.75152
7.59	2.74198
7.6	2.7558
7.61	2.72093
7.62	2.73672
7.63	2.76139
7.64	2.74889
7.65	2.75612
7.66	2.7581
7.67	2.75974
7.68	2.74264
7.69	2.75777
7.7	2.7479
7.71	2.73935
7.72	2.74231
7.73	2.75547
7.74	2.75711
7.75	2.73672
7.76	2.7331
7.77	2.74527
7.78	2.76073
7.79	2.75514
7.8	2.7479
7.81	2.73869
7.82	2.74001
7.83	2.75053
7.84	2.73244
7.85	2.74297
7.86	2.76501
7.87	2.75481
7.88	2.77224
7.89	2.78968
7.9	2.7956
7.91	2.76895
7.92	2.77586
7.93	2.77948
7.94	2.75185
7.95	2.77981
7.96	2.75316
7.97	2.75612
7.98	2.76797
7.99	2.76007
8	2.74461
8.01	2.74198
8.02	2.76369
8.03	2.7729
8.04	2.76106
8.05	2.76632
8.06	2.77652
8.07	2.75876
8.08	2.74823
8.09	2.7377
8.1	2.75711
8.11	2.75876
8.12	2.8002
8.13	2.75678
8.14	2.75481
8.15	2.77159
8.16	2.74494
8.17	2.74198
8.18	2.73408
8.19	2.74066
8.2	2.7502
8.21	2.75415
8.22	2.75448
8.23	2.77652
8.24	2.77455
8.25	2.79099
8.26	2.76073
8.27	2.75152
8.28	2.73507
8.29	2.77027
8.3	2.75448
8.31	2.79461
8.32	2.76303
8.33	2.73507
8.34	2.7683
8.35	2.77915
8.36	2.77553
8.37	2.75251
8.38	2.73112
8.39	2.73869
8.4	2.79593
8.41	2.72882
8.42	2.72093
8.43	2.75908
8.44	2.74955
8.45	2.7558
8.46	2.75514
8.47	2.75448
8.48	2.73474
8.49	2.74329
8.5	2.7729
8.51	2.74593
8.52	2.76073
8.53	2.77191
8.54	2.76895
8.55	2.76336
8.56	2.75251
8.57	2.75251
8.58	2.74428
8.59	2.72191
8.6	2.7627
8.61	2.74264
8.62	2.75547
8.63	2.78113
8.64	2.75876
8.65	2.73902
8.66	2.74066
8.67	2.74329
8.68	2.7456
8.69	2.72125
8.7	2.75218
8.71	2.7604
8.72	2.75777
8.73	2.73968
8.74	2.75283
8.75	2.75086
8.76	2.75645
8.77	2.73244
8.78	2.75119
8.79	2.75908
8.8	2.77027
8.81	2.73573
8.82	2.75974
8.83	2.7706
8.84	2.76961
8.85	2.73244
8.86	2.74889
8.87	2.75645
8.88	2.76468
8.89	2.76566
8.9	2.7252
8.91	2.77553
8.92	2.75448
8.93	2.74757
8.94	2.75119
8.95	2.76139
8.96	2.76731
8.97	2.77948
8.98	2.75908
8.99	2.75251
9	2.76632
9.01	2.75152
9.02	2.74823
9.03	2.76336
9.04	2.75316
9.05	2.75678
9.06	2.74066
9.07	2.77191
9.08	2.76303
9.09	2.74362
9.1	2.73803
9.11	2.71731
9.12	2.76599
9.13	2.75678
9.14	2.75777
9.15	2.7729
9.16	2.76139
9.17	2.75645
9.18	2.77652
9.19	2.73737
9.2	2.73573
9.21	2.74362
9.22	2.76172
9.23	2.74889
9.24	2.73869
9.25	2.7456
9.26	2.73211
9.27	2.76172
9.28	2.7377
9.29	2.79066
9.3	2.77224
9.31	2.75251
9.32	2.75218
9.33	2.73704
9.34	2.75711
9.35	2.73047
9.36	2.75053
9.37	2.75316
9.38	2.76336
9.39	2.7854
9.4	2.79626
9.41	2.77356
9.42	2.74165
9.43	2.75218
9.44	2.75448
9.45	2.76237
9.46	2.76073
9.47	2.76106
9.48	2.76303
9.49	2.74165
9.5	2.73178
9.51	2.75876
9.52	2.76303
9.53	2.76139
9.54	2.77553
9.55	2.7808
9.56	2.74626
9.57	2.75777
9.58	2.74658
9.59	2.76534
9.6	2.73112
9.61	2.73277
9.62	2.75744
9.63	2.77619
9.64	2.72257
9.65	2.74264
9.66	2.79066
9.67	2.74329
9.68	2.74724
9.69	2.75086
9.7	2.73606
9.71	2.74856
9.72	2.76007
9.73	2.74922
9.74	2.75777
9.75	2.74955
9.76	2.77849
9.77	2.74264
9.78	2.76435
9.79	2.74099
9.8	2.72454
9.81	2.7354
9.82	2.6956
9.83	2.77718
9.84	2.75283
9.85	2.74757
9.86	2.72718
9.87	2.76698
9.88	2.77882
9.89	2.7877
9.9	2.7479
9.91	2.72553
9.92	2.74329
9.93	2.73902
9.94	2.76172
9.95	2.7479
9.96	2.74823
9.97	2.75711
9.98	2.74362
9.99	2.74395
10	2.75908
10.01	2.76566
10.02	2.72454
10.03	2.7275
10.04	2.75645
10.05	2.74658
10.06	2.75152
10.07	2.75777
10.08	2.72454
10.09	2.73474
10.1	2.72422
10.11	2.74001
10.12	2.76665
10.13	2.74231
10.14	2.73441
10.15	2.74823
10.16	2.76007
10.17	2.77126
10.18	2.73672
10.19	2.73836
10.2	2.72915
10.21	2.73803
10.22	2.75053
10.23	2.76007
10.24	2.7581
10.25	2.78672
10.26	2.78244
10.27	2.75415
10.28	2.73704
10.29	2.73968
10.3	2.72685
10.31	2.7377
10.32	2.72783
10.33	2.72487
10.34	2.72816
10.35	2.78211
10.36	2.77422
10.37	2.73935
10.38	2.72454
10.39	2.7331
10.4	2.72487
10.41	2.77027
10.42	2.76534
10.43	2.74691
10.44	2.70481
10.45	2.73935
10.46	2.71698
10.47	2.74428
10.48	2.74955
10.49	2.75053
10.5	2.7502
10.51	2.78968
10.52	2.76764
10.53	2.77027
10.54	2.76369
10.55	2.76007
10.56	2.72849
10.57	2.73343
10.58	2.75514
10.59	2.73376
10.6	2.71665
10.61	2.73244
10.62	2.74033
10.63	2.72323
10.64	2.73178
10.65	2.76139
10.66	2.76665
10.67	2.75448
10.68	2.72981
10.69	2.73408
10.7	2.76501
10.71	2.73343
10.72	2.7377
10.73	2.71073
10.74	2.71829
10.75	2.75448
10.76	2.7354
10.77	2.74099
10.78	2.7252
10.79	2.73869
10.8	2.74626
10.81	2.75547
10.82	2.73968
10.83	2.73441
10.84	2.74461
10.85	2.76731
10.86	2.78606
10.87	2.78244
10.88	2.74527
10.89	2.73277
10.9	2.75053
10.91	2.70908
10.92	2.74001
10.93	2.74066
10.94	2.75185
10.95	2.71468
10.96	2.72553
10.97	2.74955
10.98	2.75908
10.99	2.73441
11	2.70546
11.01	2.75251
11.02	2.75908
11.03	2.72356
11.04	2.7229
11.05	2.72487
11.06	2.74362
11.07	2.75876
11.08	2.76172
11.09	2.76501
11.1	2.75086
11.11	2.76106
11.12	2.73211
11.13	2.73935
11.14	2.73606
11.15	2.73441
11.16	2.7206
11.17	2.73639
11.18	2.75152
11.19	2.71895
11.2	2.7275
11.21	2.75514
11.22	2.73408
11.23	2.73047
11.24	2.74987
11.25	2.73408
11.26	2.72191
11.27	2.74099
11.28	2.77455
11.29	2.75481
11.3	2.75711
11.31	2.71961
11.32	2.72948
11.33	2.75612
11.34	2.74132
11.35	2.71336
11.36	2.72849
11.37	2.77784
11.38	2.74198
11.39	2.74987
11.4	2.74593
11.41	2.76862
11.42	2.76402
11.43	2.75876
11.44	2.71435
11.45	2.69724
11.46	2.74461
11.47	2.76566
11.48	2.75283
11.49	2.75053
11.5	2.72948
11.51	2.69954
11.52	2.74066
11.53	2.73112
11.54	2.74231
11.55	2.70875
11.56	2.72389
11.57	2.75744
11.58	2.74626
11.59	2.74494
11.6	2.74264
11.61	2.72257
11.62	2.73672
11.63	2.75119
11.64	2.73639
11.65	2.74922
11.66	2.75908
11.67	2.7581
11.68	2.73639
11.69	2.72027
11.7	2.74395
11.71	2.76632
11.72	2.74264
11.73	2.75152
11.74	2.74297
11.75	2.74593
11.76	2.75251
11.77	2.71797
11.78	2.73178
11.79	2.74889
11.8	2.75152
11.81	2.73737
11.82	2.72948
11.83	2.74132
11.84	2.72093
11.85	2.72586
11.86	2.74461
11.87	2.73573
11.88	2.73474
11.89	2.7252
11.9	2.7275
11.91	2.73836
11.92	2.74362
11.93	2.73737
11.94	2.72389
11.95	2.74955
11.96	2.76566
11.97	2.74757
11.98	2.71928
11.99	2.77553
12	2.7604
12.01	2.72356
12.02	2.73935
12.03	2.76534
12.04	2.74297
12.05	2.73672
12.06	2.71171
12.07	2.73935
12.08	2.72356
12.09	2.75218
12.1	2.76073
12.11	2.71369
12.12	2.71402
12.13	2.72619
12.14	2.74165
12.15	2.74856
12.16	2.73047
12.17	2.71369
12.18	2.73803
12.19	2.73047
12.2	2.76205
12.21	2.73902
12.22	2.74001
12.23	2.73112
12.24	2.74033
12.25	2.7502
12.26	2.74658
12.27	2.72882
12.28	2.72027
12.29	2.74823
12.3	2.73145
12.31	2.72816
12.32	2.76632
12.33	2.75711
12.34	2.72586
12.35	2.73376
12.36	2.72948
12.37	2.77718
12.38	2.77619
12.39	2.73704
12.4	2.71566
12.41	2.71698
12.42	2.75481
12.43	2.73672
12.44	2.75448
12.45	2.72882
12.46	2.74461
12.47	2.74165
12.48	2.72553
12.49	2.72981
12.5	2.7354
12.51	2.73277
12.52	2.71994
12.53	2.74494
12.54	2.75152
12.55	2.74198
12.56	2.74626
12.57	2.74329
12.58	2.74198
12.59	2.73507
12.6	2.72487
12.61	2.73178
12.62	2.73408
12.63	2.75119
12.64	2.76501
12.65	2.71829
12.66	2.73277
12.67	2.7502
12.68	2.71533
12.69	2.73014
12.7	2.77257
12.71	2.77751
12.72	2.7354
12.73	2.74264
12.74	2.72915
12.75	2.73178
12.76	2.74329
12.77	2.74099
12.78	2.74658
12.79	2.73441
12.8	2.69362
12.81	2.68013
12.82	2.69
12.83	2.76599
12.84	2.71764
12.85	2.6979
12.86	2.72356
12.87	2.73145
12.88	2.74297
12.89	2.75448
12.9	2.72093
12.91	2.73573
12.92	2.75744
12.93	2.73441
12.94	2.72323
12.95	2.71468
12.96	2.74626
12.97	2.74264
12.98	2.75678
12.99	2.75843
13	2.7377
13.01	2.73803
13.02	2.70711
13.03	2.73211
13.04	2.73737
13.05	2.75481
13.06	2.74658
13.07	2.72257
13.08	2.7354
13.09	2.74395
13.1	2.74724
13.11	2.73968
13.12	2.73376
13.13	2.76106
13.14	2.72454
13.15	2.7206
13.16	2.71665
13.17	2.73047
13.18	2.7275
13.19	2.72948
13.2	2.73737
13.21	2.74757
13.22	2.72487
13.23	2.72257
13.24	2.72487
13.25	2.72783
13.26	2.75645
13.27	2.71764
13.28	2.73902
13.29	2.74494
13.3	2.71599
13.31	2.72981
13.32	2.74132
13.33	2.74527
13.34	2.73244
13.35	2.73573
13.36	2.74922
13.37	2.74428
13.38	2.76731
13.39	2.74658
13.4	2.75152
13.41	2.74362
13.42	2.69494
13.43	2.72553
13.44	2.7581
13.45	2.74264
13.46	2.70974
13.47	2.75514
13.48	2.71402
13.49	2.71369
13.5	2.7502
13.51	2.70678
13.52	2.76731
13.53	2.72948
13.54	2.70843
13.55	2.7377
13.56	2.68737
13.57	2.72718
13.58	2.70908
13.59	2.75283
13.6	2.73935
13.61	2.71106
13.62	2.69823
13.63	2.72257
13.64	2.76106
13.65	2.7604
13.66	2.7229
13.67	2.71829
13.68	2.70744
13.69	2.72685
13.7	2.74099
13.71	2.74889
13.72	2.73737
13.73	2.75843
