"BIO-KINE ASCII FILE"
"_COMMENT"	"MOS-500 Spectrometer"
"_COMMENT"	"Kinetics measurement"
"_COMMENT"	"Y Unit : Volt,  X Unit : s"
"_COMMENT"	"Excitation wavelength : 380 nm"
"_COMMENT"	"Fentes bandwidth =  1 nm"
"_COMMENT"	"HV= 1000V"
"_COMMENT"	"Timebase  1 =  .01 s   5001 pts"
"_SFM"	"SFM-400 /S  Advanced mode"
"_SFM"	"Ratio : S1: 2.5, S2: 0, S3: 0, S4: 1"
"_SFM"	"Content : S1: , S2: , S3: , S4:"
"_SFM"	"Concentration : S1: , S2: , S3: , S4:"
"_SFM"	"Total volume : 209 µl  Flow : 3.5 mL/s"
"_SFM"	"Acquisition start :  10 ms before stop"
"_SFM"	"cuve=FC-15, s1=10 ml , s2=10 ml , s3=10 ml , s4=1.9 ml"
"_UNITX"	"s"
"_UNITY"	"Volt"
"_DELTAX"	0
"_DATA"
1e-300	4.37657
0.01	4.32196
0.02	4.39335
0.03	4.48809
0.04	4.55684
0.05	4.57789
0.06	4.57362
0.07	4.62033
0.08	4.61375
0.09	4.62461
0.1	4.6348
0.11	4.65487
0.12	4.67921
0.13	4.67395
0.14	4.67296
0.15	4.69994
0.16	4.69763
0.17	4.67954
0.18	4.67658
0.19	4.70684
0.2	4.68152
0.21	4.73382
0.22	4.71474
0.23	4.71836
0.24	4.6677
0.25	4.71013
0.26	4.71178
0.27	4.71112
0.28	4.69369
0.29	4.6904
0.3	4.67461
0.31	4.67559
0.32	4.71211
0.33	4.72362
0.34	4.71507
0.35	4.71079
0.36	4.67954
0.37	4.70125
0.38	4.70125
0.39	4.66112
0.4	4.70454
0.41	4.71836
0.42	4.67954
0.43	4.65948
0.44	4.67198
0.45	4.67724
0.46	4.65191
0.47	4.65322
0.48	4.69994
0.49	4.67987
0.5	4.68875
0.51	4.64072
0.52	4.68908
0.53	4.68086
0.54	4.65224
0.55	4.65421
0.56	4.6654
0.57	4.69434
0.58	4.73053
0.59	4.7029
0.6	4.71408
0.61	4.66408
0.62	4.67855
0.63	4.71474
0.64	4.69073
0.65	4.66573
0.66	4.64928
0.67	4.63842
0.68	4.64303
0.69	4.63316
0.7	4.65717
0.71	4.66276
0.72	4.64467
0.73	4.60553
0.74	4.65586
0.75	4.64007
0.76	4.66276
0.77	4.67823
0.78	4.65717
0.79	4.67329
0.8	4.68316
0.81	4.66079
0.82	4.64533
0.83	4.64895
0.84	4.65059
0.85	4.6848
0.86	4.64138
0.87	4.65322
0.88	4.67099
0.89	4.67691
0.9	4.63941
0.91	4.67362
0.92	4.63382
0.93	4.64369
0.94	4.63086
0.95	4.65651
0.96	4.66211
0.97	4.63184
0.98	4.63645
0.99	4.59467
1	4.6223
1.01	4.57625
1.02	4.6098
1.03	4.61079
1.04	4.59664
1.05	4.64072
1.06	4.6575
1.07	4.65553
1.08	4.60092
1.09	4.58645
1.1	4.61605
1.11	4.61309
1.12	4.60849
1.13	4.61638
1.14	4.58414
1.15	4.61276
1.16	4.61408
1.17	4.62921
1.18	4.61572
1.19	4.61408
1.2	4.59533
1.21	4.63974
1.22	4.60224
1.23	4.62888
1.24	4.60849
1.25	4.60618
1.26	4.57428
1.27	4.59204
1.28	4.57756
1.29	4.58974
1.3	4.62
1.31	4.61112
1.32	4.58875
1.33	4.59796
1.34	4.61474
1.35	4.60421
1.36	4.55849
1.37	4.57395
1.38	4.58053
1.39	4.59599
1.4	4.55026
1.41	4.60421
1.42	4.56868
1.43	4.57954
1.44	4.55454
1.45	4.57658
1.46	4.6075
1.47	4.61342
1.48	4.63415
1.49	4.64105
1.5	4.59862
1.51	4.55651
1.52	4.54533
1.53	4.55059
1.54	4.5802
1.55	4.5371
1.56	4.55487
1.57	4.57691
1.58	4.56474
1.59	4.55191
1.6	4.57526
1.61	4.55947
1.62	4.56309
1.63	4.54829
1.64	4.53644
1.65	4.57625
1.66	4.57987
1.67	4.54566
1.68	4.54072
1.69	4.54697
1.7	4.57066
1.71	4.57691
1.72	4.5348
1.73	4.57855
1.74	4.55849
1.75	4.51276
1.76	4.53546
1.77	4.56408
1.78	4.53217
1.79	4.5575
1.8	4.56112
1.81	4.61474
1.82	4.55849
1.83	4.5677
1.84	4.53612
1.85	4.56342
1.86	4.57066
1.87	4.55125
1.88	4.54072
1.89	4.495
1.9	4.55881
1.91	4.54105
1.92	4.55092
1.93	4.54434
1.94	4.52362
1.95	4.52
1.96	4.48151
1.97	4.51671
1.98	4.49763
1.99	4.54401
2	4.52296
2.01	4.5121
2.02	4.49927
2.03	4.50158
2.04	4.52526
2.05	4.51671
2.06	4.51704
2.07	4.54368
2.08	4.49039
2.09	4.54006
2.1	4.50651
2.11	4.53316
2.12	4.51309
2.13	4.49829
2.14	4.4973
2.15	4.52526
2.16	4.54401
2.17	4.51079
2.18	4.50421
2.19	4.495
2.2	4.48513
2.21	4.49533
2.22	4.50454
2.23	4.49664
2.24	4.52822
2.25	4.49302
2.26	4.53743
2.27	4.4996
2.28	4.48579
2.29	4.51934
2.3	4.45947
2.31	4.47296
2.32	4.53546
2.33	4.48809
2.34	4.46901
2.35	4.55717
2.36	4.51144
2.37	4.47361
2.38	4.5371
2.39	4.50421
2.4	4.47986
2.41	4.47164
2.42	4.47954
2.43	4.52
2.44	4.50717
2.45	4.51276
2.46	4.52559
2.47	4.52065
2.48	4.51309
2.49	4.50355
2.5	4.49072
2.51	4.44664
2.52	4.44236
2.53	4.49829
2.54	4.5223
2.55	4.48677
2.56	4.47954
2.57	4.47888
2.58	4.49204
2.59	4.49565
2.6	4.45157
2.61	4.45947
2.62	4.48677
2.63	4.46407
2.64	4.47822
2.65	4.45486
2.66	4.4746
2.67	4.45092
2.68	4.48644
2.69	4.47394
2.7	4.44434
2.71	4.4769
2.72	4.48513
2.73	4.45486
2.74	4.48348
2.75	4.47954
2.76	4.47493
2.77	4.45684
2.78	4.45223
2.79	4.4621
2.8	4.45815
2.81	4.44401
2.82	4.45651
2.83	4.49533
2.84	4.46835
2.85	4.45124
2.86	4.42526
2.87	4.42822
2.88	4.48118
2.89	4.47263
2.9	4.40881
2.91	4.39006
2.92	4.43414
2.93	4.44697
2.94	4.43282
2.95	4.46046
2.96	4.43282
2.97	4.41243
2.98	4.44763
2.99	4.44434
3	4.45388
3.01	4.44236
3.02	4.40387
3.03	4.41045
3.04	4.48611
3.05	4.42822
3.06	4.46473
3.07	4.44993
3.08	4.43611
3.09	4.38249
3.1	4.4269
3.11	4.3996
3.12	4.41703
3.13	4.43249
3.14	4.45289
3.15	4.43052
3.16	4.42263
3.17	4.44598
3.18	4.43842
3.19	4.41999
3.2	4.44796
3.21	4.38512
3.22	4.40223
3.23	4.4098
3.24	4.41374
3.25	4.40124
3.26	4.44927
3.27	4.43907
3.28	4.3996
3.29	4.42361
3.3	4.42756
3.31	4.38611
3.32	4.40091
3.33	4.42361
3.34	4.38447
3.35	4.44072
3.36	4.42065
3.37	4.39401
3.38	4.39302
3.39	4.44072
3.4	4.42427
3.41	4.41934
3.42	4.40519
3.43	4.40716
3.44	4.38644
3.45	4.39137
3.46	4.4042
3.47	4.3769
3.48	4.41078
3.49	4.39302
3.5	4.38907
3.51	4.38545
3.52	4.41309
3.53	4.4019
3.54	4.41341
3.55	4.39631
3.56	4.37361
3.57	4.38677
3.58	4.38808
3.59	4.38874
3.6	4.38183
3.61	4.38414
3.62	4.4292
3.63	4.42657
3.64	4.38085
3.65	4.3848
3.66	4.41901
3.67	4.39269
3.68	4.38183
3.69	4.38874
3.7	4.40815
3.71	4.48118
3.72	4.42164
3.73	4.3894
3.74	4.37262
3.75	4.40289
3.76	4.41177
3.77	4.42493
3.78	4.41572
3.79	4.38447
3.8	4.38282
3.81	4.39664
3.82	4.40651
3.83	4.35387
3.84	4.41243
3.85	4.41901
3.86	4.45256
3.87	4.38447
3.88	4.38611
3.89	4.41605
3.9	4.38973
3.91	4.36868
3.92	4.35486
3.93	4.37953
3.94	4.40519
3.95	4.36407
3.96	4.3792
3.97	4.36144
3.98	4.36604
3.99	4.36539
4	4.37723
4.01	4.39401
4.02	4.3769
4.03	4.36637
4.04	4.35256
4.05	4.33249
4.06	4.37756
4.07	4.37822
4.08	4.38907
4.09	4.38216
4.1	4.42657
4.11	4.3621
4.12	4.36374
4.13	4.35519
4.14	4.38743
4.15	4.36012
4.16	4.38019
4.17	4.38052
4.18	4.34927
4.19	4.37657
4.2	4.35979
4.21	4.36177
4.22	4.35322
4.23	4.37723
4.24	4.3973
4.25	4.35058
4.26	4.36637
4.27	4.3519
4.28	4.36407
4.29	4.37361
4.3	4.34433
4.31	4.35552
4.32	4.36802
4.33	4.37098
4.34	4.32591
4.35	4.34927
4.36	4.32789
4.37	4.34532
4.38	4.37361
4.39	4.37361
4.4	4.36868
4.41	4.3394
4.42	4.3542
4.43	4.33775
4.44	4.34039
4.45	4.34861
4.46	4.36539
4.47	4.37361
4.48	4.34499
4.49	4.34729
4.5	4.35453
4.51	4.31012
4.52	4.31703
4.53	4.32427
4.54	4.29499
4.55	4.34795
4.56	4.36308
4.57	4.36111
4.58	4.33874
4.59	4.37032
4.6	4.35881
4.61	4.32953
4.62	4.35486
4.63	4.33611
4.64	4.31802
4.65	4.3121
4.66	4.34894
4.67	4.3371
4.68	4.33348
4.69	4.33183
4.7	4.31242
4.71	4.3042
4.72	4.33381
4.73	4.344
4.74	4.37591
4.75	4.33841
4.76	4.32953
4.77	4.32756
4.78	4.34927
4.79	4.29631
4.8	4.32854
4.81	4.30124
4.82	4.32756
4.83	4.29499
4.84	4.31473
4.85	4.33414
4.86	4.30354
4.87	4.27756
4.88	4.32196
4.89	4.33282
4.9	4.34499
4.91	4.3519
4.92	4.30288
4.93	4.32164
4.94	4.32525
4.95	4.31473
4.96	4.28117
4.97	4.30683
4.98	4.29795
4.99	4.31045
5	4.30387
5.01	4.29631
5.02	4.32657
5.03	4.28644
5.04	4.28611
5.05	4.28874
5.06	4.28413
5.07	4.31473
5.08	4.27624
5.09	4.3042
5.1	4.29729
5.11	4.27558
5.12	4.29137
5.13	4.33841
5.14	4.27459
5.15	4.33808
5.16	4.32493
5.17	4.31275
5.18	4.31473
5.19	4.28117
5.2	4.29335
5.21	4.31078
5.22	4.31637
5.23	4.30519
5.24	4.33085
5.25	4.31012
5.26	4.32657
5.27	4.29302
5.28	4.28578
5.29	4.27756
5.3	4.31835
5.31	4.30585
5.32	4.2713
5.33	4.27459
5.34	4.27163
5.35	4.28315
5.36	4.30914
5.37	4.28677
5.38	4.25552
5.39	4.29598
5.4	4.26374
5.41	4.27098
5.42	4.30914
5.43	4.29367
5.44	4.2519
5.45	4.28775
5.46	4.2792
5.47	4.29466
5.48	4.27854
5.49	4.3371
5.5	4.29104
5.51	4.3121
5.52	4.28216
5.53	4.2463
5.54	4.2417
5.55	4.26966
5.56	4.269
5.57	4.24729
5.58	4.23249
5.59	4.30321
5.6	4.29466
5.61	4.26242
5.62	4.28578
5.63	4.27788
5.64	4.25354
5.65	4.31933
5.66	4.29335
5.67	4.26604
5.68	4.29203
5.69	4.24137
5.7	4.26407
5.71	4.24137
5.72	4.2565
5.73	4.26341
5.74	4.24828
5.75	4.26111
5.76	4.27492
5.77	4.26999
5.78	4.29598
5.79	4.29499
5.8	4.24367
5.81	4.26144
5.82	4.22722
5.83	4.23808
5.84	4.28446
5.85	4.27986
5.86	4.26078
5.87	4.24992
5.88	4.23874
5.89	4.23512
5.9	4.26538
5.91	4.23216
5.92	4.24203
5.93	4.27065
5.94	4.25913
5.95	4.24894
5.96	4.219
5.97	4.20683
5.98	4.25584
5.99	4.24861
6	4.27328
6.01	4.27459
6.02	4.27328
6.03	4.26802
6.04	4.2269
6.05	4.22755
6.06	4.23249
6.07	4.25683
6.08	4.26999
6.09	4.24334
6.1	4.23611
6.11	4.27525
6.12	4.27525
6.13	4.24959
6.14	4.28052
6.15	4.27657
6.16	4.26045
6.17	4.26933
6.18	4.25157
6.19	4.27295
6.2	4.24762
6.21	4.27558
6.22	4.24926
6.23	4.24071
6.24	4.2338
6.25	4.2338
6.26	4.24367
6.27	4.2565
6.28	4.23249
6.29	4.2417
6.3	4.26012
6.31	4.24762
6.32	4.22722
6.33	4.20683
6.34	4.2213
6.35	4.23479
6.36	4.22755
6.37	4.23742
6.38	4.23019
6.39	4.269
6.4	4.2144
6.41	4.20913
6.42	4.21933
6.43	4.25716
6.44	4.19762
6.45	4.17689
6.46	4.22361
6.47	4.26374
6.48	4.22722
6.49	4.21341
6.5	4.24203
6.51	4.22788
6.52	4.19532
6.53	4.21736
6.54	4.219
6.55	4.21078
6.56	4.22558
6.57	4.20946
6.58	4.22854
6.59	4.21966
6.6	4.23644
6.61	4.2213
6.62	4.18775
6.63	4.22328
6.64	4.1861
6.65	4.20091
6.66	4.22624
6.67	4.23216
6.68	4.23676
6.69	4.21736
6.7	4.22887
6.71	4.25387
6.72	4.2292
6.73	4.23084
6.74	4.219
6.75	4.24104
6.76	4.2519
6.77	4.2644
6.78	4.23578
6.79	4.23907
6.8	4.2065
6.81	4.18874
6.82	4.20913
6.83	4.24301
6.84	4.22229
6.85	4.19334
6.86	4.22492
6.87	4.21407
6.88	4.21604
6.89	4.24071
6.9	4.21341
6.91	4.21637
6.92	4.19893
6.93	4.21143
6.94	4.19795
6.95	4.17755
6.96	4.21768
6.97	4.26604
6.98	4.23183
6.99	4.20486
7	4.16341
7.01	4.19433
7.02	4.21012
7.03	4.19433
7.04	4.22196
7.05	4.19564
7.06	4.1917
7.07	4.20288
7.08	4.23578
7.09	4.20683
7.1	4.19762
7.11	4.24828
7.12	4.16308
7.13	4.18051
7.14	4.21933
7.15	4.2167
7.16	4.20815
7.17	4.24236
7.18	4.17953
7.19	4.25848
7.2	4.20979
7.21	4.22854
7.22	4.20782
7.23	4.23709
7.24	4.20815
7.25	4.17657
7.26	4.18972
7.27	4.21604
7.28	4.18939
7.29	4.20486
7.3	4.19795
7.31	4.19433
7.32	4.18808
7.33	4.15222
7.34	4.16867
7.35	4.18512
7.36	4.1713
7.37	4.2213
7.38	4.19071
7.39	4.19959
7.4	4.16571
7.41	4.17426
7.42	4.21374
7.43	4.194
7.44	4.19893
7.45	4.16078
7.46	4.21078
7.47	4.18413
7.48	4.16176
7.49	4.1917
7.5	4.15946
7.51	4.19663
7.52	4.20815
7.53	4.18479
7.54	4.20913
7.55	4.17064
7.56	4.17854
7.57	4.20025
7.58	4.16834
7.59	4.19861
7.6	4.22361
7.61	4.219
7.62	4.16768
7.63	4.19137
7.64	4.20288
7.65	4.20782
7.66	4.19137
7.67	4.17393
7.68	4.19005
7.69	4.22624
7.7	4.19005
7.71	4.18282
7.72	4.16209
7.73	4.20157
7.74	4.15222
7.75	4.14696
7.76	4.19203
7.77	4.17788
7.78	4.17788
7.79	4.20222
7.8	4.15091
7.81	4.17196
7.82	4.15058
7.83	4.16308
7.84	4.15189
7.85	4.18347
7.86	4.19005
7.87	4.16209
7.88	4.14992
7.89	4.1542
7.9	4.17097
7.91	4.18841
7.92	4.16406
7.93	4.14564
7.94	4.18216
7.95	4.17459
7.96	4.1588
7.97	4.18117
7.98	4.16604
7.99	4.15518
8	4.18347
8.01	4.18939
8.02	4.1486
8.03	4.14696
8.04	4.1542
8.05	4.15124
8.06	4.16341
8.07	4.14104
8.08	4.16012
8.09	4.12229
8.1	4.11867
8.11	4.18742
8.12	4.13742
8.13	4.11373
8.14	4.1611
8.15	4.17262
8.16	4.15025
8.17	4.18282
8.18	4.20321
8.19	4.14729
8.2	4.16275
8.21	4.14992
8.22	4.17689
8.23	4.15222
8.24	4.10288
8.25	4.13347
8.26	4.16012
8.27	4.1611
8.28	4.16768
8.29	4.12854
8.3	4.14663
8.31	4.19893
8.32	4.20124
8.33	4.16867
8.34	4.14301
8.35	4.16176
8.36	4.16209
8.37	4.16045
8.38	4.13183
8.39	4.11077
8.4	4.14071
8.41	4.12887
8.42	4.13413
8.43	4.1917
8.44	4.19236
8.45	4.16834
8.46	4.13216
8.47	4.10617
8.48	4.144
8.49	4.15255
8.5	4.15222
8.51	4.169
8.52	4.1542
8.53	4.13117
8.54	4.13972
8.55	4.13643
8.56	4.17163
8.57	4.17295
8.58	4.1736
8.59	4.18282
8.6	4.16637
8.61	4.14433
8.62	4.11768
8.63	4.12393
8.64	4.11801
8.65	4.14696
8.66	4.15847
8.67	4.15518
8.68	4.12064
8.69	4.17393
8.7	4.14926
8.71	4.11669
8.72	4.11472
8.73	4.11275
8.74	4.16966
8.75	4.1611
8.76	4.13808
8.77	4.12426
8.78	4.13413
8.79	4.14433
8.8	4.12558
8.81	4.1542
8.82	4.1361
8.83	4.16571
8.84	4.10979
8.85	4.1236
8.86	4.12031
8.87	4.15124
8.88	4.14499
8.89	4.17459
8.9	4.12295
8.91	4.1361
8.92	4.13281
8.93	4.1111
8.94	4.1315
8.95	4.15124
8.96	4.14071
8.97	4.12591
8.98	4.11176
8.99	4.09992
9	4.14071
9.01	4.13018
9.02	4.16045
9.03	4.12295
9.04	4.12163
9.05	4.14499
9.06	4.16341
9.07	4.17985
9.08	4.16933
9.09	4.12952
9.1	4.15518
9.11	4.14301
9.12	4.1315
9.13	4.13577
9.14	4.15222
9.15	4.1292
9.16	4.12229
9.17	4.10979
9.18	4.13347
9.19	4.12821
9.2	4.12525
9.21	4.13314
9.22	4.11998
9.23	4.10748
9.24	4.1236
9.25	4.15255
9.26	4.1417
9.27	4.08676
9.28	4.10748
9.29	4.14696
9.3	4.11538
9.31	4.11012
9.32	4.12393
9.33	4.14104
9.34	4.09794
9.35	4.08577
9.36	4.12393
9.37	4.10518
9.38	4.06242
9.39	4.11077
9.4	4.1065
9.41	4.094
9.42	4.08577
9.43	4.13939
9.44	4.13084
9.45	4.07821
9.46	4.119
9.47	4.09597
9.48	4.08873
9.49	4.07854
9.5	4.08051
9.51	4.1292
9.52	4.11669
9.53	4.13018
9.54	4.09597
9.55	4.14334
9.56	4.0861
9.57	4.14959
9.58	4.12952
9.59	4.15946
9.6	4.11209
9.61	4.14959
9.62	4.12854
9.63	4.09038
9.64	4.0986
9.65	4.07722
9.66	4.09893
9.67	4.06307
9.68	4.08577
9.69	4.12163
9.7	4.08446
9.71	4.11242
9.72	4.10814
9.73	4.09433
9.74	4.10617
9.75	4.13347
9.76	4.11505
9.77	4.12196
9.78	4.11966
9.79	4.10058
9.8	4.08906
9.81	4.12722
9.82	4.11439
9.83	4.10518
9.84	4.07821
9.85	4.10452
9.86	4.09992
9.87	4.09729
9.88	4.14367
9.89	4.13248
9.9	4.12196
9.91	4.13347
9.92	4.11834
9.93	4.094
9.94	4.15814
9.95	4.10156
9.96	4.12459
9.97	4.12689
9.98	4.04794
9.99	4.11373
10	4.12854
10.01	4.07952
10.02	4.07393
10.03	4.11044
10.04	4.10288
10.05	4.09433
10.06	4.09893
10.07	4.10814
10.08	4.10288
10.09	4.10354
10.1	4.0963
10.11	4.07788
10.12	4.09794
10.13	4.10716
10.14	4.11012
10.15	4.09465
10.16	4.11505
10.17	4.11143
10.18	4.12393
10.19	4.14005
10.2	4.08084
10.21	4.08511
10.22	4.0634
10.23	4.10584
10.24	4.10025
10.25	4.12031
10.26	4.04761
10.27	4.13775
10.28	4.1088
10.29	4.11538
10.3	4.03051
10.31	4.05288
10.32	4.10058
10.33	4.09038
10.34	4.09827
10.35	4.07492
10.36	4.08479
10.37	4.09202
10.38	4.08018
10.39	4.10551
10.4	4.11669
10.41	4.06965
10.42	4.07886
10.43	4.12492
10.44	4.10288
10.45	4.11341
10.46	4.09564
10.47	4.11538
10.48	4.07031
10.49	4.09071
10.5	4.07952
10.51	4.06801
10.52	4.06505
10.53	4.07196
10.54	4.07558
10.55	4.0986
10.56	4.13512
10.57	4.10551
10.58	4.06604
10.59	4.04827
10.6	4.06768
10.61	4.05321
10.62	4.07196
10.63	4.1111
10.64	4.07196
10.65	4.069
10.66	4.10847
10.67	4.0486
10.68	4.09498
10.69	4.10913
10.7	4.11505
10.71	4.08742
10.72	4.11702
10.73	4.11604
10.74	4.09465
10.75	4.07919
10.76	4.07886
10.77	4.07426
10.78	4.05189
10.79	4.06801
10.8	4.08577
10.81	4.1111
10.82	4.11077
10.83	4.10683
10.84	4.11637
10.85	4.07163
10.86	4.05189
10.87	4.0588
10.88	4.08479
10.89	4.09071
10.9	4.08577
10.91	4.0634
10.92	4.06275
10.93	4.08347
10.94	4.10387
10.95	4.07031
10.96	4.07985
10.97	4.05485
10.98	4.0861
10.99	4.06834
11	4.07656
11.01	4.03906
11.02	4.04696
11.03	4.07689
11.04	4.04071
11.05	4.044
11.06	4.05419
11.07	4.05518
11.08	4.09235
11.09	4.11242
11.1	4.10518
11.11	4.0713
11.12	4.04005
11.13	4.08676
11.14	4.05222
11.15	4.04038
11.16	4.07755
11.17	4.08775
11.18	4.0588
11.19	4.0884
11.2	4.0884
11.21	4.04169
11.22	4.06307
11.23	4.05386
11.24	4.07163
11.25	4.06867
11.26	4.09038
11.27	4.06998
11.28	4.06932
11.29	4.08511
11.3	4.07886
11.31	4.07031
11.32	4.10913
11.33	4.09498
11.34	4.11637
11.35	4.05485
11.36	4.08643
11.37	4.05584
11.38	4.06604
11.39	4.03577
11.4	4.04301
11.41	4.01702
11.42	4.01603
11.43	4.05979
11.44	4.03643
11.45	4.0486
11.46	4.05025
11.47	4.03643
11.48	4.05419
11.49	4.05551
11.5	4.07854
11.51	4.0565
11.52	4.04268
11.53	4.03774
11.54	4.08709
11.55	4.06867
11.56	4.08446
11.57	4.0736
11.58	4.08084
11.59	4.03873
11.6	4.08084
11.61	4.06176
11.62	4.06932
11.63	4.08215
11.64	4.05682
11.65	4.09038
11.66	4.0736
11.67	4.01505
11.68	4.03906
11.69	4.07426
11.7	4.03051
11.71	4.0509
11.72	4.06044
11.73	4.0338
11.74	4.04432
11.75	4.07294
11.76	4.02064
11.77	4.04038
11.78	4.01932
11.79	4.044
11.8	4.04959
11.81	4.07821
11.82	4.04926
11.83	4.04992
11.84	4.08643
11.85	4.09071
11.86	4.05189
11.87	4.05913
11.88	4.04959
11.89	3.99597
11.9	4.03347
11.91	4.04597
11.92	4.07558
11.93	4.02623
11.94	4.06768
11.95	4.10485
11.96	4.06636
11.97	4.02952
11.98	4.03774
11.99	4.07886
12	4.02821
12.01	4.00584
12.02	4.03281
12.03	4.04334
12.04	4.05715
12.05	4.06735
12.06	4.06406
12.07	4.0815
12.08	4.06439
12.09	4.06209
12.1	4.04071
12.11	4.04268
12.12	4.0338
12.13	4.04992
12.14	4.04367
12.15	4.044
12.16	4.01965
12.17	4.04367
12.18	4.06669
12.19	4.08413
12.2	4.02228
12.21	4.05353
12.22	4.06143
12.23	4.06834
12.24	4.03084
12.25	4.04564
12.26	4.06439
12.27	4.06965
12.28	4.09104
12.29	4.03939
12.3	4.07821
12.31	4.0815
12.32	4.06538
12.33	4.05321
12.34	4.02755
12.35	4.08347
12.36	4.06669
12.37	4.01538
12.38	4.04038
12.39	4.01011
12.4	4.03084
12.41	4.05584
12.42	4.02557
12.43	4.06077
12.44	4.06307
12.45	4.04169
12.46	4.0486
12.47	4.06209
12.48	4.02524
12.49	4.05847
12.5	4.04597
12.51	4.02656
12.52	4.04136
12.53	4.07097
12.54	4.05255
12.55	4.08084
12.56	4.05814
12.57	4.03018
12.58	4.03709
12.59	4.03807
12.6	4.03511
12.61	4.04531
12.62	4.04367
12.63	4.04071
12.64	4.05748
12.65	4.04367
12.66	4.06307
12.67	4.05715
12.68	4.01735
12.69	4.04663
12.7	4.02755
12.71	4.05123
12.72	4.02524
12.73	4.04136
12.74	4.04268
12.75	4.07788
12.76	4.04005
12.77	4.02228
12.78	4.0588
12.79	4.02623
12.8	4.02031
12.81	4.04663
12.82	4.08939
12.83	4.06439
12.84	4.04334
12.85	4.05715
12.86	4.08577
12.87	4.07821
12.88	4.05617
12.89	4.03314
12.9	4.05057
12.91	4.0463
12.92	4.04103
12.93	4.01932
12.94	4.06275
12.95	4.06044
12.96	4.04498
12.97	4.02459
12.98	4.04794
12.99	4.02985
13	4.06702
13.01	4.08577
13.02	4.05025
13.03	4.03939
13.04	4.03939
13.05	4.069
13.06	4.02097
13.07	3.99761
13.08	4.01998
13.09	4.02492
13.1	4.01834
13.11	4.03709
13.12	4.03149
13.13	4.06275
13.14	4.02952
13.15	4.05715
13.16	4.044
13.17	3.98939
13.18	4.01143
13.19	4.07163
13.2	4.05386
13.21	3.9838
13.22	4.01538
13.23	4.00518
13.24	4.01834
13.25	4.07294
13.26	4.05518
13.27	4.01867
13.28	4.04235
13.29	4.05255
13.3	4.06242
13.31	4.02163
13.32	4.03281
13.33	4.05123
13.34	4.03807
13.35	4.02656
13.36	4.06406
13.37	4.069
13.38	4.06834
13.39	4.02985
13.4	4.04334
13.41	4.07492
13.42	4.05386
13.43	4.07327
13.44	4.02097
13.45	3.99465
13.46	4.03873
13.47	4.06209
13.48	4.03939
13.49	4.00781
13.5	4.08314
13.51	4.05748
13.52	4.06669
13.53	4.04432
13.54	4.04794
13.55	4.06636
13.56	4.04367
13.57	4.02557
13.58	4.00913
13.59	3.98774
13.6	4.01011
13.61	4.0236
13.62	4.02623
13.63	4.06209
13.64	4.03248
13.65	4.03182
13.66	4.03314
13.67	4.0259
13.68	4.01505
13.69	4.03117
13.7	4.02853
13.71	4.03018
13.72	4.02557
13.73	4.03446
13.74	4.05386
13.75	4.05057
13.76	3.99268
