"BIO-KINE ASCII FILE"
"_COMMENT"	"MOS-500 Spectrometer"
"_COMMENT"	"Kinetics measurement"
"_COMMENT"	"Y Unit : Volt,  X Unit : s"
"_COMMENT"	"Excitation wavelength : 380 nm"
"_COMMENT"	"Fentes bandwidth =  1 nm"
"_COMMENT"	"HV= 700V"
"_COMMENT"	"Timebase  1 =  .01 s   3001 pts"
"_SFM"	"SFM-400 /S  Advanced mode"
"_SFM"	"Ratio : S1: 2.5, S2: 0, S3: 0, S4: 1"
"_SFM"	"Content : S1: , S2: , S3: , S4:"
"_SFM"	"Concentration : S1: , S2: , S3: , S4:"
"_SFM"	"Total volume : 209 µl  Flow : 3.5 mL/s"
"_SFM"	"Acquisition start :  10 ms before stop"
"_SFM"	"cuve=FC-15, s1=10 ml , s2=10 ml , s3=10 ml , s4=1.9 ml"
"_UNITX"	"s"
"_UNITY"	"Volt"
"_DELTAX"	0
"_DATA"
1e-300	8.0951
0.01	8.72603
0.02	8.78294
0.03	8.81748
0.04	8.81222
0.05	8.81156
0.06	8.8109
0.07	8.80794
0.08	8.81386
0.09	8.8211
0.1	8.82373
0.11	8.82307
0.12	8.81518
0.13	8.82998
0.14	8.81452
0.15	8.81288
0.16	8.81847
0.17	8.80959
0.18	8.8257
0.19	8.80531
0.2	8.80761
0.21	8.79577
0.22	8.7961
0.23	8.78623
0.24	8.79215
0.25	8.78491
0.26	8.78524
0.27	8.78886
0.28	8.77866
0.29	8.77669
0.3	8.77537
0.31	8.76189
0.32	8.73754
0.33	8.76353
0.34	8.75761
0.35	8.73097
0.36	8.73426
0.37	8.74182
0.38	8.73393
0.39	8.72406
0.4	8.70728
0.41	8.72504
0.42	8.71222
0.43	8.68952
0.44	8.69478
0.45	8.69379
0.46	8.68656
0.47	8.66616
0.48	8.66945
0.49	8.67274
0.5	8.65892
0.51	8.65037
0.52	8.64873
0.53	8.65498
0.54	8.63031
0.55	8.62636
0.56	8.61748
0.57	8.60892
0.58	8.61419
0.59	8.60563
0.6	8.60234
0.61	8.5928
0.62	8.59215
0.63	8.57208
0.64	8.55662
0.65	8.55925
0.66	8.56879
0.67	8.5609
0.68	8.54412
0.69	8.54642
0.7	8.52668
0.71	8.51747
0.72	8.5109
0.73	8.5132
0.74	8.51155
0.75	8.49971
0.76	8.5053
0.77	8.49083
0.78	8.48491
0.79	8.48129
0.8	8.45662
0.81	8.44971
0.82	8.44741
0.83	8.43556
0.84	8.43195
0.85	8.40727
0.86	8.42438
0.87	8.42372
0.88	8.42899
0.89	8.41122
0.9	8.39576
0.91	8.39214
0.92	8.37537
0.93	8.37372
0.94	8.36221
0.95	8.36484
0.96	8.36319
0.97	8.35037
0.98	8.35431
0.99	8.34938
1	8.34872
1.01	8.33359
1.02	8.33359
1.03	8.32109
1.04	8.30661
1.05	8.30365
1.06	8.29477
1.07	8.28951
1.08	8.27273
1.09	8.28227
1.1	8.28194
1.11	8.2724
1.12	8.24971
1.13	8.26221
1.14	8.24017
1.15	8.24543
1.16	8.23227
1.17	8.21681
1.18	8.21813
1.19	8.21188
1.2	8.19082
1.21	8.1974
1.22	8.19674
1.23	8.1928
1.24	8.16845
1.25	8.18227
1.26	8.16516
1.27	8.15858
1.28	8.16122
1.29	8.1451
1.3	8.15661
1.31	8.13654
1.32	8.13687
1.33	8.127
1.34	8.11286
1.35	8.12964
1.36	8.10529
1.37	8.09674
1.38	8.08424
1.39	8.07602
1.4	8.07602
1.41	8.07865
1.42	8.0576
1.43	8.05661
1.44	8.05266
1.45	8.04312
1.46	8.03292
1.47	8.0395
1.48	8.0145
1.49	8.01746
1.5	8.01878
1.51	8.01483
1.52	8.00825
1.53	7.99148
1.54	7.9895
1.55	7.97766
1.56	7.96417
1.57	7.96516
1.58	7.96088
1.59	7.96417
1.6	7.94345
1.61	7.94082
1.62	7.93917
1.63	7.92996
1.64	7.92239
1.65	7.91976
1.66	7.88029
1.67	7.88489
1.68	7.89082
1.69	7.88489
1.7	7.87831
1.71	7.87733
1.72	7.86713
1.73	7.84345
1.74	7.83621
1.75	7.8293
1.76	7.82897
1.77	7.81812
1.78	7.82831
1.79	7.79575
1.8	7.79805
1.81	7.79706
1.82	7.78456
1.83	7.79608
1.84	7.78983
1.85	7.77765
1.86	7.76121
1.87	7.75529
1.88	7.74542
1.89	7.73325
1.9	7.73226
1.91	7.72634
1.92	7.72436
1.93	7.72206
1.94	7.70759
1.95	7.70956
1.96	7.70956
1.97	7.69574
1.98	7.69476
1.99	7.67765
2	7.67338
2.01	7.67042
2.02	7.67765
2.03	7.65561
2.04	7.6487
2.05	7.64147
2.06	7.6293
2.07	7.63291
2.08	7.62535
2.09	7.6112
2.1	7.61219
2.11	7.60199
2.12	7.59574
2.13	7.58785
2.14	7.57699
2.15	7.56548
2.16	7.56943
2.17	7.5714
2.18	7.54771
2.19	7.55133
2.2	7.55331
2.21	7.52995
2.22	7.54015
2.23	7.53258
2.24	7.51449
2.25	7.52107
2.26	7.50528
2.27	7.50758
2.28	7.49607
2.29	7.48686
2.3	7.47699
2.31	7.47074
2.32	7.46087
2.33	7.45692
2.34	7.44837
2.35	7.4589
2.36	7.4385
2.37	7.42995
2.38	7.4214
2.39	7.41054
2.4	7.4112
2.41	7.3987
2.42	7.3885
2.43	7.38883
2.44	7.37962
2.45	7.38258
2.46	7.37863
2.47	7.38159
2.48	7.36909
2.49	7.3533
2.5	7.34541
2.51	7.33455
2.52	7.34606
2.53	7.33587
2.54	7.31481
2.55	7.31646
2.56	7.3112
2.57	7.30659
2.58	7.30659
2.59	7.28718
2.6	7.28817
2.61	7.28751
2.62	7.27863
2.63	7.27271
2.64	7.26876
2.65	7.24836
2.66	7.24211
2.67	7.24672
2.68	7.23422
2.69	7.2204
2.7	7.2135
2.71	7.20889
2.72	7.20626
2.73	7.20988
2.74	7.20231
2.75	7.20363
2.76	7.19244
2.77	7.17271
2.78	7.18093
2.79	7.15692
2.8	7.1533
2.81	7.15494
2.82	7.14047
2.83	7.13849
2.84	7.14836
2.85	7.12303
2.86	7.1181
2.87	7.10922
2.88	7.11152
2.89	7.10724
2.9	7.09277
2.91	7.0852
2.92	7.09803
2.93	7.08685
2.94	7.07566
2.95	7.06152
2.96	7.06843
2.97	7.06349
2.98	7.05165
2.99	7.025
3	7.03783
3.01	7.03849
3.02	7.03586
3.03	7.02204
3.04	7.00691
3.05	7.0102
3.06	7.00625
3.07	7.00099
3.08	6.98684
3.09	6.98586
3.1	6.98684
3.11	6.98092
3.12	6.96546
3.13	6.95954
3.14	6.95592
3.15	6.95198
3.16	6.95066
3.17	6.93059
3.18	6.92961
3.19	6.92105
3.2	6.92138
3.21	6.90296
3.22	6.90625
3.23	6.91612
3.24	6.91283
3.25	6.90658
3.26	6.89441
3.27	6.86842
3.28	6.87566
3.29	6.87566
3.3	6.87171
3.31	6.86053
3.32	6.84572
3.33	6.84243
3.34	6.84112
3.35	6.8227
3.36	6.81677
3.37	6.825
3.38	6.82434
3.39	6.81381
3.4	6.80197
3.41	6.81085
3.42	6.8023
3.43	6.79441
3.44	6.78519
3.45	6.77862
3.46	6.78421
3.47	6.76677
3.48	6.76019
3.49	6.75263
3.5	6.74835
3.51	6.74671
3.52	6.74276
3.53	6.72664
3.54	6.7273
3.55	6.72434
3.56	6.70855
3.57	6.71184
3.58	6.71118
3.59	6.7171
3.6	6.70493
3.61	6.69868
3.62	6.68486
3.63	6.67861
3.64	6.66118
3.65	6.6592
3.66	6.66611
3.67	6.64769
3.68	6.6444
3.69	6.6467
3.7	6.64473
3.71	6.64572
3.72	6.63223
3.73	6.63585
3.74	6.62466
3.75	6.60887
3.76	6.61512
3.77	6.60197
3.78	6.60295
3.79	6.59637
3.8	6.59539
3.81	6.58848
3.82	6.59473
3.83	6.57433
3.84	6.56118
3.85	6.55953
3.86	6.54999
3.87	6.55525
3.88	6.54802
3.89	6.53683
3.9	6.53848
3.91	6.52302
3.92	6.53091
3.93	6.52137
3.94	6.50821
3.95	6.51348
3.96	6.50394
3.97	6.50163
3.98	6.50163
3.99	6.48157
4	6.48058
4.01	6.47828
4.02	6.46973
4.03	6.45854
4.04	6.43979
4.05	6.45163
4.06	6.46282
4.07	6.44176
4.08	6.44374
4.09	6.43222
4.1	6.42203
4.11	6.42696
4.12	6.4263
4.13	6.40986
4.14	6.42104
4.15	6.40953
4.16	6.38946
4.17	6.39242
4.18	6.38749
4.19	6.3967
4.2	6.38814
4.21	6.38453
4.22	6.37235
4.23	6.36742
4.24	6.37334
4.25	6.35196
4.26	6.35328
4.27	6.34999
4.28	6.34045
4.29	6.34637
4.3	6.33354
4.31	6.3263
4.32	6.33255
4.33	6.33617
4.34	6.32531
4.35	6.30294
4.36	6.30887
4.37	6.29933
4.38	6.29604
4.39	6.2911
4.4	6.29044
4.41	6.27893
4.42	6.26577
4.43	6.26972
4.44	6.26479
4.45	6.25689
4.46	6.24472
4.47	6.2638
4.48	6.2513
4.49	6.23913
4.5	6.2434
4.51	6.24011
4.52	6.23321
4.53	6.22564
4.54	6.21906
4.55	6.20492
4.56	6.20031
4.57	6.21281
4.58	6.19899
4.59	6.18913
4.6	6.18649
4.61	6.1763
4.62	6.1763
4.63	6.18222
4.64	6.17465
4.65	6.15787
4.66	6.15393
4.67	6.16445
4.68	6.15228
4.69	6.14998
4.7	6.15228
4.71	6.14702
4.72	6.14077
4.73	6.1411
4.74	6.13287
4.75	6.1388
4.76	6.12366
4.77	6.11478
4.78	6.10524
4.79	6.11215
4.8	6.10952
4.81	6.098
4.82	6.10129
4.83	6.09307
4.84	6.08419
4.85	6.08485
4.86	6.07004
4.87	6.05458
4.88	6.07333
4.89	6.06906
4.9	6.06445
4.91	6.06182
4.92	6.05491
4.93	6.05162
4.94	6.05129
4.95	6.03221
4.96	6.01774
4.97	6.02399
4.98	6.02827
4.99	6.01971
5	6.02498
5.01	6.0105
5.02	6.01741
5.03	6.01478
5.04	5.99965
5.05	5.99998
5.06	5.98879
5.07	5.98879
5.08	5.98484
5.09	5.97201
5.1	5.97234
5.11	5.97234
5.12	5.96609
5.13	5.9559
5.14	5.95886
5.15	5.95754
5.16	5.95524
5.17	5.94274
5.18	5.95261
5.19	5.9457
5.2	5.93747
5.21	5.92201
5.22	5.94537
5.23	5.92859
5.24	5.91872
5.25	5.91872
5.26	5.92168
5.27	5.9082
5.28	5.90853
5.29	5.90622
5.3	5.89372
5.31	5.88451
5.32	5.89339
5.33	5.87431
5.34	5.87958
5.35	5.88385
5.36	5.87431
5.37	5.87168
5.38	5.86971
5.39	5.86346
5.4	5.87168
5.41	5.86116
5.42	5.85195
5.43	5.85721
5.44	5.85129
5.45	5.84175
5.46	5.83944
5.47	5.83944
5.48	5.83846
5.49	5.82267
5.5	5.82596
5.51	5.83056
5.52	5.81773
5.53	5.82069
5.54	5.81247
5.55	5.81017
5.56	5.81708
5.57	5.80655
5.58	5.79931
5.59	5.798
5.6	5.798
5.61	5.79339
5.62	5.78944
5.63	5.79207
5.64	5.78056
5.65	5.79405
5.66	5.7776
5.67	5.7776
5.68	5.77464
5.69	5.75951
5.7	5.7628
5.71	5.7628
5.72	5.75984
5.73	5.74734
5.74	5.74865
5.75	5.74931
5.76	5.73418
5.77	5.73813
5.78	5.7378
5.79	5.72003
5.8	5.72694
5.81	5.72464
5.82	5.7128
5.83	5.72398
5.84	5.70457
5.85	5.70885
5.86	5.70424
5.87	5.68845
5.88	5.69372
5.89	5.69536
5.9	5.69503
5.91	5.67332
5.92	5.66641
5.93	5.66905
5.94	5.66905
5.95	5.66674
5.96	5.66049
5.97	5.65852
5.98	5.65457
5.99	5.65687
6	5.66214
6.01	5.65951
6.02	5.65326
6.03	5.65095
6.04	5.64108
6.05	5.6424
6.06	5.6447
6.07	5.63154
6.08	5.63056
6.09	5.62365
6.1	5.61641
6.11	5.61641
6.12	5.6276
6.13	5.62003
6.14	5.62168
6.15	5.61477
6.16	5.6095
6.17	5.60424
6.18	5.60457
6.19	5.59536
6.2	5.58549
6.21	5.58286
6.22	5.5924
6.23	5.57825
6.24	5.57398
6.25	5.572
6.26	5.57299
6.27	5.56082
6.28	5.55292
6.29	5.56016
6.3	5.56806
6.31	5.55227
6.32	5.54536
6.33	5.55128
6.34	5.54371
6.35	5.547
6.36	5.54108
6.37	5.54569
6.38	5.5299
6.39	5.52825
6.4	5.53154
6.41	5.52759
6.42	5.52792
6.43	5.5243
6.44	5.52299
6.45	5.50654
6.46	5.51016
6.47	5.5072
6.48	5.51049
6.49	5.51838
6.5	5.50621
6.51	5.50193
6.52	5.49338
6.53	5.48614
6.54	5.49141
6.55	5.47891
6.56	5.48286
6.57	5.4822
6.58	5.47134
6.59	5.48055
6.6	5.46114
6.61	5.46378
6.62	5.45851
6.63	5.46641
6.64	5.45654
6.65	5.45457
6.66	5.45753
6.67	5.45588
6.68	5.4516
6.69	5.447
6.7	5.447
6.71	5.44239
6.72	5.42858
6.73	5.43121
6.74	5.44042
6.75	5.43943
6.76	5.43022
6.77	5.43285
6.78	5.43187
6.79	5.41904
6.8	5.42134
6.81	5.41509
6.82	5.41081
6.83	5.40522
6.84	5.41542
6.85	5.41772
6.86	5.41542
6.87	5.4016
6.88	5.39864
6.89	5.38976
6.9	5.38943
6.91	5.38779
6.92	5.38285
6.93	5.37298
6.94	5.38219
6.95	5.38285
6.96	5.36542
6.97	5.37627
6.98	5.37298
6.99	5.36673
7	5.35654
7.01	5.37397
7.02	5.36542
7.03	5.36739
7.04	5.37298
7.05	5.36608
7.06	5.3595
7.07	5.35061
7.08	5.35719
7.09	5.34897
7.1	5.347
7.11	5.34338
7.12	5.347
7.13	5.34831
7.14	5.34404
7.15	5.33943
7.16	5.32331
7.17	5.32167
7.18	5.31509
7.19	5.33285
7.2	5.33252
7.21	5.32989
7.22	5.3164
7.23	5.30555
7.24	5.31081
7.25	5.31706
7.26	5.32857
7.27	5.30752
7.28	5.29996
7.29	5.30292
7.3	5.30028
7.31	5.30653
7.32	5.3016
7.33	5.29009
7.34	5.30357
7.35	5.29535
7.36	5.2891
7.37	5.2891
7.38	5.28153
7.39	5.26509
7.4	5.26772
7.41	5.28285
7.42	5.28285
7.43	5.28153
7.44	5.27561
7.45	5.25818
7.46	5.26147
7.47	5.26805
7.48	5.26443
7.49	5.25423
7.5	5.24897
7.51	5.25028
7.52	5.25719
7.53	5.25324
7.54	5.24436
7.55	5.24469
7.56	5.25587
7.57	5.24272
7.58	5.23581
7.59	5.24305
7.6	5.24765
7.61	5.24995
7.62	5.23581
7.63	5.22495
7.64	5.2391
7.65	5.24206
7.66	5.23087
7.67	5.23976
7.68	5.23647
7.69	5.23449
7.7	5.22364
7.71	5.2187
7.72	5.23285
7.73	5.22791
7.74	5.21377
7.75	5.21804
7.76	5.2164
7.77	5.21212
7.78	5.2141
7.79	5.2164
7.8	5.20193
7.81	5.21541
7.82	5.21048
7.83	5.19568
7.84	5.19798
7.85	5.1914
7.86	5.19568
7.87	5.20489
7.88	5.19206
7.89	5.18646
7.9	5.18614
7.91	5.1812
7.92	5.18186
7.93	5.18153
7.94	5.18975
7.95	5.19403
7.96	5.17331
7.97	5.1687
7.98	5.17693
7.99	5.16541
8	5.15817
8.01	5.16903
8.02	5.17133
8.03	5.17133
8.04	5.16212
8.05	5.15225
8.06	5.14271
8.07	5.14765
8.08	5.15324
8.09	5.14271
8.1	5.14206
8.11	5.14995
8.12	5.15521
8.13	5.14831
8.14	5.14666
8.15	5.1516
8.16	5.13877
8.17	5.14008
8.18	5.146
8.19	5.13646
8.2	5.13877
8.21	5.14535
8.22	5.12462
8.23	5.13317
8.24	5.12034
8.25	5.12824
8.26	5.1312
8.27	5.13054
8.28	5.12462
8.29	5.12791
8.3	5.11574
8.31	5.12166
8.32	5.11245
8.33	5.11837
8.34	5.11442
8.35	5.10752
8.36	5.10554
8.37	5.10423
8.38	5.1039
8.39	5.09765
8.4	5.10521
8.41	5.10686
8.42	5.09929
8.43	5.09469
8.44	5.09173
8.45	5.10521
8.46	5.08712
8.47	5.08712
8.48	5.08219
8.49	5.08219
8.5	5.07824
8.51	5.07922
8.52	5.09501
8.53	5.07758
8.54	5.0789
8.55	5.07988
8.56	5.0812
8.57	5.07988
8.58	5.0835
8.59	5.08087
8.6	5.07955
8.61	5.07232
8.62	5.07199
8.63	5.0687
8.64	5.06771
8.65	5.0664
8.66	5.06705
8.67	5.05883
8.68	5.0687
8.69	5.05784
8.7	5.04896
8.71	5.04501
8.72	5.05291
8.73	5.04732
8.74	5.04403
8.75	5.04205
8.76	5.03843
8.77	5.05028
8.78	5.04962
8.79	5.04863
8.8	5.03416
8.81	5.03153
8.82	5.03251
8.83	5.02034
8.84	5.03712
8.85	5.03153
8.86	5.02363
8.87	5.021
8.88	5.03218
8.89	5.021
8.9	5.02429
8.91	5.02626
8.92	5.01541
8.93	5.02264
8.94	5.02495
8.95	5.0006
8.96	5.01212
8.97	5.01672
8.98	5.00521
8.99	5.01804
9	5.01113
9.01	5.00324
9.02	5.00521
9.03	5.01014
9.04	5.00587
9.05	5.00554
9.06	5.00422
9.07	5.01179
9.08	5.01442
9.09	5.00389
9.1	4.99139
9.11	5.00192
9.12	5.00455
9.13	4.9881
9.14	4.99205
9.15	4.98777
9.16	4.98712
9.17	4.99172
9.18	4.99238
9.19	4.99041
9.2	4.98843
9.21	4.97692
9.22	4.9756
9.23	4.96541
9.24	4.98054
9.25	4.98942
9.26	4.98679
9.27	4.97922
9.28	4.96968
9.29	4.97692
9.3	4.97593
9.31	4.97264
9.32	4.97495
9.33	4.9812
9.34	4.96804
9.35	4.97001
9.36	4.96771
9.37	4.9687
9.38	4.97429
9.39	4.94698
9.4	4.95126
9.41	4.96508
9.42	4.96541
9.43	4.96935
9.44	4.96771
9.45	4.96014
9.46	4.95356
9.47	4.95323
9.48	4.96244
9.49	4.96376
9.5	4.9631
9.51	4.95126
9.52	4.95784
9.53	4.95981
9.54	4.96606
9.55	4.95192
9.56	4.94962
9.57	4.95356
9.58	4.95685
9.59	4.9585
9.6	4.94962
9.61	4.95619
9.62	4.9483
9.63	4.94962
9.64	4.9358
9.65	4.93777
9.66	4.92955
9.67	4.93712
9.68	4.94764
9.69	4.94008
9.7	4.93777
9.71	4.93383
9.72	4.92593
9.73	4.93284
9.74	4.93942
9.75	4.93185
9.76	4.92001
9.77	4.93284
9.78	4.93415
9.79	4.9335
9.8	4.92461
9.81	4.91705
9.82	4.92001
9.83	4.921
9.84	4.92396
9.85	4.9131
9.86	4.91869
9.87	4.92165
9.88	4.91771
9.89	4.90521
9.9	4.92198
9.91	4.92165
9.92	4.91672
9.93	4.9131
9.94	4.91244
9.95	4.91771
9.96	4.90685
9.97	4.91836
9.98	4.92067
9.99	4.90915
10	4.92133
10.01	4.91211
10.02	4.90751
10.03	4.9108
10.04	4.91179
10.05	4.91409
10.06	4.89896
10.07	4.91211
10.08	4.90817
10.09	4.90554
10.1	4.91672
10.11	4.90455
10.12	4.896
10.13	4.88909
10.14	4.9085
10.15	4.89896
10.16	4.89797
10.17	4.89238
10.18	4.89698
10.19	4.88514
10.2	4.88711
10.21	4.88711
10.22	4.89632
10.23	4.8904
10.24	4.89106
10.25	4.89369
10.26	4.88744
10.27	4.87461
10.28	4.87626
10.29	4.87955
10.3	4.88251
10.31	4.88021
10.32	4.87889
10.33	4.88448
10.34	4.88021
10.35	4.87494
10.36	4.8756
10.37	4.87099
10.38	4.86639
10.39	4.86442
10.4	4.87428
10.41	4.88284
10.42	4.87198
10.43	4.86639
10.44	4.87067
10.45	4.88053
10.46	4.86935
10.47	4.86771
10.48	4.87099
10.49	4.87692
10.5	4.88415
10.51	4.88086
10.52	4.87132
10.53	4.86113
10.54	4.86639
10.55	4.86343
10.56	4.85553
10.57	4.86244
10.58	4.86376
10.59	4.86573
10.6	4.86573
10.61	4.86771
10.62	4.86047
10.63	4.85553
10.64	4.85751
10.65	4.85948
10.66	4.86343
10.67	4.84764
10.68	4.86113
10.69	4.84468
10.7	4.85652
10.71	4.85159
10.72	4.85422
10.73	4.8552
10.74	4.84632
10.75	4.84468
10.76	4.84764
10.77	4.8529
10.78	4.86178
10.79	4.83941
10.8	4.85981
10.81	4.84369
10.82	4.83613
10.83	4.83843
10.84	4.85093
10.85	4.83876
10.86	4.8358
10.87	4.85093
10.88	4.84073
10.89	4.83744
10.9	4.84303
10.91	4.8279
10.92	4.84863
10.93	4.83678
10.94	4.83974
10.95	4.82955
10.96	4.83218
10.97	4.83284
10.98	4.83678
10.99	4.83645
11	4.83349
11.01	4.83974
11.02	4.82889
11.03	4.83185
11.04	4.83053
11.05	4.83185
11.06	4.83086
11.07	4.82165
11.08	4.83415
11.09	4.82626
11.1	4.83185
11.11	4.82395
11.12	4.82099
11.13	4.82691
11.14	4.81803
11.15	4.81573
11.16	4.81277
11.17	4.81935
11.18	4.82626
11.19	4.82691
11.2	4.81606
11.21	4.8154
11.22	4.8177
11.23	4.82198
11.24	4.80915
11.25	4.81803
11.26	4.80718
11.27	4.80816
11.28	4.8131
11.29	4.81343
11.3	4.81869
11.31	4.80323
11.32	4.80553
11.33	4.81803
11.34	4.81836
11.35	4.80718
11.36	4.81968
11.37	4.81178
11.38	4.80652
11.39	4.81145
11.4	4.81145
11.41	4.81474
11.42	4.81014
11.43	4.80553
11.44	4.80257
11.45	4.80718
11.46	4.8108
11.47	4.81639
11.48	4.80487
11.49	4.81441
11.5	4.80685
11.51	4.80158
11.52	4.80356
11.53	4.80619
11.54	4.8006
11.55	4.80553
11.56	4.79303
11.57	4.78908
11.58	4.79501
11.59	4.80224
11.6	4.80126
11.61	4.79797
11.62	4.79106
11.63	4.78547
11.64	4.79895
11.65	4.78941
11.66	4.7904
11.67	4.78612
11.68	4.78876
11.69	4.78448
11.7	4.79336
11.71	4.78843
11.72	4.78053
11.73	4.77264
11.74	4.78218
11.75	4.77823
11.76	4.77856
11.77	4.78415
11.78	4.77724
11.79	4.77757
11.8	4.77231
11.81	4.77954
11.82	4.78777
11.83	4.76704
11.84	4.77527
11.85	4.79336
11.86	4.78382
11.87	4.78218
11.88	4.78316
11.89	4.79139
11.9	4.7904
11.91	4.78316
11.92	4.78645
11.93	4.7983
11.94	4.78612
11.95	4.77954
11.96	4.78481
11.97	4.79139
11.98	4.77428
11.99	4.78908
12	4.78941
12.01	4.78678
12.02	4.78053
12.03	4.77099
12.04	4.7756
12.05	4.78974
12.06	4.78547
12.07	4.77954
12.08	4.78251
12.09	4.77625
12.1	4.77757
12.11	4.78349
12.12	4.78316
12.13	4.77823
12.14	4.78283
12.15	4.77724
12.16	4.76968
12.17	4.76211
12.18	4.76935
12.19	4.77757
12.2	4.77658
12.21	4.77
12.22	4.77231
12.23	4.76639
12.24	4.76803
12.25	4.76704
12.26	4.76343
12.27	4.77099
12.28	4.76573
12.29	4.76474
12.3	4.76277
12.31	4.76474
12.32	4.76343
12.33	4.75487
12.34	4.74007
12.35	4.75981
12.36	4.75586
12.37	4.74731
12.38	4.74994
12.39	4.75487
12.4	4.75718
12.41	4.76441
12.42	4.75553
12.43	4.75816
12.44	4.75685
12.45	4.74895
12.46	4.76343
12.47	4.74073
12.48	4.7506
12.49	4.75421
12.5	4.75948
12.51	4.76014
12.52	4.75685
12.53	4.7506
12.54	4.74566
12.55	4.74994
12.56	4.7427
12.57	4.75915
12.58	4.74829
12.59	4.75553
12.6	4.75323
12.61	4.75125
12.62	4.75915
12.63	4.75257
12.64	4.74731
12.65	4.75191
12.66	4.75191
12.67	4.73941
12.68	4.7506
12.69	4.74336
12.7	4.74007
12.71	4.73382
12.72	4.72856
12.73	4.74336
12.74	4.74106
12.75	4.73711
12.76	4.73119
12.77	4.74303
12.78	4.74336
12.79	4.73579
12.8	4.74007
12.81	4.73875
12.82	4.72625
12.83	4.7302
12.84	4.73546
12.85	4.73448
12.86	4.73119
12.87	4.73152
12.88	4.73908
12.89	4.74073
12.9	4.72658
12.91	4.73678
12.92	4.72823
12.93	4.72362
12.94	4.73086
12.95	4.73086
12.96	4.7302
12.97	4.72658
12.98	4.72165
12.99	4.72165
13	4.72658
13.01	4.72132
13.02	4.71704
13.03	4.71902
13.04	4.72823
13.05	4.72494
13.06	4.72724
13.07	4.73382
13.08	4.72625
13.09	4.72296
13.1	4.72921
13.11	4.72724
13.12	4.71902
13.13	4.7256
13.14	4.72724
13.15	4.72658
13.16	4.72296
13.17	4.71967
13.18	4.71803
13.19	4.71013
13.2	4.71244
13.21	4.71836
13.22	4.71507
13.23	4.71671
13.24	4.72
13.25	4.71408
13.26	4.71869
13.27	4.71836
13.28	4.72198
13.29	4.72395
13.3	4.72099
13.31	4.72428
13.32	4.73448
13.33	4.71836
13.34	4.73382
13.35	4.71967
13.36	4.71869
13.37	4.72757
13.38	4.71836
13.39	4.70454
13.4	4.72889
13.41	4.73744
13.42	4.72296
13.43	4.7177
13.44	4.71935
13.45	4.72461
13.46	4.7131
13.47	4.71474
13.48	4.71737
13.49	4.72132
13.5	4.72527
13.51	4.71836
13.52	4.72329
13.53	4.7302
13.54	4.73941
13.55	4.73678
13.56	4.71967
13.57	4.73185
13.58	4.72231
13.59	4.72132
13.6	4.72
13.61	4.71606
13.62	4.72033
13.63	4.71737
13.64	4.72165
13.65	4.72625
13.66	4.72592
13.67	4.7177
13.68	4.72
13.69	4.72494
13.7	4.71606
13.71	4.71408
13.72	4.71737
13.73	4.72099
13.74	4.71902
13.75	4.71869
13.76	4.7131
13.77	4.72461
