"BIO-KINE ASCII FILE"
"_COMMENT"	"MOS-500 Spectrometer"
"_COMMENT"	"Kinetics measurement"
"_COMMENT"	"Y Unit : Volt,  X Unit : s"
"_COMMENT"	"Excitation wavelength : 380 nm"
"_COMMENT"	"Fentes bandwidth =  1 nm"
"_COMMENT"	"HV= 1000V"
"_COMMENT"	"Timebase  1 =  .01 s   5001 pts"
"_SFM"	"SFM-400 /S  Advanced mode"
"_SFM"	"Ratio : S1: 2.5, S2: 0, S3: 0, S4: 1"
"_SFM"	"Content : S1: , S2: , S3: , S4:"
"_SFM"	"Concentration : S1: , S2: , S3: , S4:"
"_SFM"	"Total volume : 209 µl  Flow : 3.5 mL/s"
"_SFM"	"Acquisition start :  10 ms before stop"
"_SFM"	"cuve=FC-15, s1=10 ml , s2=10 ml , s3=10 ml , s4=1.9 ml"
"_UNITX"	"s"
"_UNITY"	"Volt"
"_DELTAX"	0
"_DATA"
1e-300	2.98113
0.01	2.97751
0.02	2.95449
0.03	3.03673
0.04	3.06732
0.05	3.11568
0.06	3.09265
0.07	3.11798
0.08	3.16173
0.09	3.15351
0.1	3.15219
0.11	3.1693
0.12	3.21634
0.13	3.22818
0.14	3.21107
0.15	3.24397
0.16	3.23903
0.17	3.22259
0.18	3.20778
0.19	3.22982
0.2	3.20778
0.21	3.22489
0.22	3.21042
0.23	3.22456
0.24	3.21074
0.25	3.20778
0.26	3.22653
0.27	3.23838
0.28	3.1887
0.29	3.2193
0.3	3.242
0.31	3.28575
0.32	3.25154
0.33	3.21568
0.34	3.2443
0.35	3.21338
0.36	3.19199
0.37	3.19528
0.38	3.20318
0.39	3.22094
0.4	3.24726
0.41	3.23311
0.42	3.23476
0.43	3.22851
0.44	3.21634
0.45	3.2091
0.46	3.20088
0.47	3.21469
0.48	3.23377
0.49	3.22851
0.5	3.21897
0.51	3.20745
0.52	3.22818
0.53	3.22259
0.54	3.23081
0.55	3.267
0.56	3.20778
0.57	3.20581
0.58	3.19528
0.59	3.19956
0.6	3.20384
0.61	3.17653
0.62	3.17094
0.63	3.18081
0.64	3.20186
0.65	3.2466
0.66	3.24068
0.67	3.24726
0.68	3.21371
0.69	3.21634
0.7	3.22785
0.71	3.22785
0.72	3.20022
0.73	3.20614
0.74	3.24298
0.75	3.20581
0.76	3.18015
0.77	3.19101
0.78	3.19134
0.79	3.18015
0.8	3.1943
0.81	3.19792
0.82	3.21272
0.83	3.20318
0.84	3.18147
0.85	3.18541
0.86	3.21239
0.87	3.22456
0.88	3.20219
0.89	3.19495
0.9	3.20614
0.91	3.2091
0.92	3.17193
0.93	3.21338
0.94	3.22456
0.95	3.19265
0.96	3.21305
0.97	3.18147
0.98	3.19693
0.99	3.20745
1	3.20548
1.01	3.21963
1.02	3.22884
1.03	3.19528
1.04	3.17193
1.05	3.19298
1.06	3.16995
1.07	3.16634
1.08	3.19397
1.09	3.21206
1.1	3.1693
1.11	3.19166
1.12	3.18739
1.13	3.18081
1.14	3.15811
1.15	3.17686
1.16	3.19364
1.17	3.17949
1.18	3.19528
1.19	3.20384
1.2	3.20844
1.21	3.23081
1.22	3.18114
1.23	3.19857
1.24	3.1864
1.25	3.19199
1.26	3.15614
1.27	3.18838
1.28	3.1943
1.29	3.18903
1.3	3.16962
1.31	3.19265
1.32	3.18739
1.33	3.15877
1.34	3.18772
1.35	3.21667
1.36	3.20252
1.37	3.19594
1.38	3.17489
1.39	3.16666
1.4	3.16074
1.41	3.17587
1.42	3.20351
1.43	3.21601
1.44	3.18607
1.45	3.16535
1.46	3.18838
1.47	3.20877
1.48	3.1818
1.49	3.17752
1.5	3.18739
1.51	3.22127
1.52	3.17949
1.53	3.15548
1.54	3.1716
1.55	3.21338
1.56	3.18509
1.57	3.17324
1.58	3.15976
1.59	3.15745
1.6	3.20745
1.61	3.18607
1.62	3.19166
1.63	3.17587
1.64	3.17226
1.65	3.18048
1.66	3.17489
1.67	3.21272
1.68	3.2068
1.69	3.20219
1.7	3.17456
1.71	3.17259
1.72	3.1591
1.73	3.1614
1.74	3.17719
1.75	3.20581
1.76	3.15252
1.77	3.18344
1.78	3.17489
1.79	3.13936
1.8	3.16239
1.81	3.18574
1.82	3.17028
1.83	3.20581
1.84	3.20844
1.85	3.17555
1.86	3.15285
1.87	3.15614
1.88	3.17851
1.89	3.15515
1.9	3.16634
1.91	3.18344
1.92	3.14726
1.93	3.17357
1.94	3.17522
1.95	3.18476
1.96	3.20548
1.97	3.20186
1.98	3.1512
1.99	3.17423
2	3.16995
2.01	3.18081
2.02	3.15745
2.03	3.15778
2.04	3.15285
2.05	3.18015
2.06	3.13673
2.07	3.13015
2.08	3.1762
2.09	3.17028
2.1	3.15548
2.11	3.15548
2.12	3.1466
2.13	3.1739
2.14	3.12686
2.15	3.15449
2.16	3.17061
2.17	3.18048
2.18	3.14561
2.19	3.14824
2.2	3.15515
2.21	3.12916
2.22	3.14462
2.23	3.13772
2.24	3.16798
2.25	3.15087
2.26	3.15844
2.27	3.14133
2.28	3.15186
2.29	3.12324
2.3	3.13772
2.31	3.16601
2.32	3.17785
2.33	3.15351
2.34	3.15647
2.35	3.15219
2.36	3.16699
2.37	3.16535
2.38	3.14331
2.39	3.15087
2.4	3.16305
2.41	3.15252
2.42	3.1716
2.43	3.18903
2.44	3.20713
2.45	3.1387
2.46	3.14758
2.47	3.20088
2.48	3.15581
2.49	3.16765
2.5	3.20219
2.51	3.15449
2.52	3.13837
2.53	3.11929
2.54	3.14133
2.55	3.14495
2.56	3.15844
2.57	3.16798
2.58	3.15416
2.59	3.13969
2.6	3.15943
2.61	3.15745
2.62	3.17127
2.63	3.15844
2.64	3.14627
2.65	3.14298
2.66	3.17489
2.67	3.14199
2.68	3.10844
2.69	3.16436
2.7	3.17193
2.71	3.12785
2.72	3.1239
2.73	3.11239
2.74	3.16074
2.75	3.17851
2.76	3.1489
2.77	3.15055
2.78	3.18476
2.79	3.1387
2.8	3.12982
2.81	3.12982
2.82	3.13837
2.83	3.14101
2.84	3.12883
2.85	3.11304
2.86	3.14331
2.87	3.14528
2.88	3.17686
2.89	3.14166
2.9	3.14199
2.91	3.13706
2.92	3.11995
2.93	3.1114
2.94	3.12982
2.95	3.09989
2.96	3.09989
2.97	3.16337
2.98	3.14561
2.99	3.15581
3	3.15219
3.01	3.10844
3.02	3.15778
3.03	3.15351
3.04	3.11666
3.05	3.1216
3.06	3.15318
3.07	3.10252
3.08	3.11436
3.09	3.15745
3.1	3.10745
3.11	3.11436
3.12	3.11831
3.13	3.11666
3.14	3.15022
3.15	3.15745
3.16	3.13607
3.17	3.13179
3.18	3.14035
3.19	3.1341
3.2	3.14495
3.21	3.15285
3.22	3.1364
3.23	3.12489
3.24	3.11666
3.25	3.15778
3.26	3.14199
3.27	3.16469
3.28	3.14693
3.29	3.12949
3.3	3.1091
3.31	3.14923
3.32	3.12225
3.33	3.12324
3.34	3.13607
3.35	3.16568
3.36	3.09824
3.37	3.11271
3.38	3.11699
3.39	3.116
3.4	3.12061
3.41	3.13344
3.42	3.12653
3.43	3.13147
3.44	3.09035
3.45	3.09627
3.46	3.12883
3.47	3.13311
3.48	3.10975
3.49	3.12982
3.5	3.11929
3.51	3.11304
3.52	3.10252
3.53	3.11732
3.54	3.1341
3.55	3.11765
3.56	3.11732
3.57	3.13607
3.58	3.13903
3.59	3.09528
3.6	3.12554
3.61	3.08936
3.62	3.14331
3.63	3.14528
3.64	3.10449
3.65	3.09429
3.66	3.10021
3.67	3.09199
3.68	3.12949
3.69	3.11271
3.7	3.10087
3.71	3.10712
3.72	3.14462
3.73	3.10844
3.74	3.0489
3.75	3.11008
3.76	3.12522
3.77	3.13673
3.78	3.10581
3.79	3.09396
3.8	3.12653
3.81	3.14528
3.82	3.14101
3.83	3.09298
3.84	3.10383
3.85	3.11403
3.86	3.13344
3.87	3.10021
3.88	3.11436
3.89	3.11864
3.9	3.13081
3.91	3.1137
3.92	3.12094
3.93	3.09857
3.94	3.10054
3.95	3.13179
3.96	3.12357
3.97	3.13081
3.98	3.11107
3.99	3.10778
4	3.10548
4.01	3.13311
4.02	3.11239
4.03	3.1114
4.04	3.08146
4.05	3.08278
4.06	3.11798
4.07	3.12587
4.08	3.10449
4.09	3.08179
4.1	3.10646
4.11	3.091
4.12	3.0739
4.13	3.10416
4.14	3.10646
4.15	3.09923
4.16	3.08015
4.17	3.11535
4.18	3.11239
4.19	3.11831
4.2	3.12949
4.21	3.12258
4.22	3.09232
4.23	3.06962
4.24	3.08969
4.25	3.10877
4.26	3.09199
4.27	3.10449
4.28	3.10745
4.29	3.09528
4.3	3.1035
4.31	3.09692
4.32	3.11666
4.33	3.08475
4.34	3.05778
4.35	3.07291
4.36	3.09627
4.37	3.10153
4.38	3.09331
4.39	3.1364
4.4	3.08804
4.41	3.06666
4.42	3.09035
4.43	3.1091
4.44	3.09857
4.45	3.12456
4.46	3.10877
4.47	3.09495
4.48	3.11666
4.49	3.11864
4.5	3.06765
4.51	3.09265
4.52	3.10252
4.53	3.1387
4.54	3.07785
4.55	3.07423
4.56	3.07587
4.57	3.07423
4.58	3.0989
4.59	3.10712
4.6	3.09462
4.61	3.0887
4.62	3.11732
4.63	3.11107
4.64	3.06929
4.65	3.09298
4.66	3.10021
4.67	3.1137
4.68	3.11633
4.69	3.10318
4.7	3.10087
4.71	3.07982
4.72	3.11304
4.73	3.116
4.74	3.0762
4.75	3.10548
4.76	3.06995
4.77	3.10646
4.78	3.10778
4.79	3.09495
4.8	3.08475
4.81	3.08936
4.82	3.12818
4.83	3.09002
4.84	3.10778
4.85	3.08212
4.86	3.06502
4.87	3.07225
4.88	3.08179
4.89	3.13344
4.9	3.10449
4.91	3.07785
4.92	3.05975
4.93	3.09331
4.94	3.10054
4.95	3.0716
4.96	3.10778
4.97	3.09528
4.98	3.10745
4.99	3.08739
5	3.11304
5.01	3.09824
5.02	3.08607
5.03	3.05416
5.04	3.04791
5.05	3.08212
5.06	3.0739
5.07	3.10087
5.08	3.11436
5.09	3.11535
5.1	3.11502
5.11	3.10482
5.12	3.09989
5.13	3.07785
5.14	3.10679
5.15	3.07061
5.16	3.10614
5.17	3.07192
5.18	3.11239
5.19	3.0966
5.2	3.08903
5.21	3.09232
5.22	3.06831
5.23	3.07785
5.24	3.07949
5.25	3.07456
5.26	3.09133
5.27	3.06765
5.28	3.08804
5.29	3.07949
5.3	3.09166
5.31	3.1012
5.32	3.08146
5.33	3.11929
5.34	3.07423
5.35	3.06074
5.36	3.0966
5.37	3.07028
5.38	3.09758
5.39	3.11897
5.4	3.1137
5.41	3.05778
5.42	3.06699
5.43	3.07883
5.44	3.08607
5.45	3.09956
5.46	3.08541
5.47	3.0841
5.48	3.08442
5.49	3.11271
5.5	3.06732
5.51	3.06666
5.52	3.07028
5.53	3.09166
5.54	3.10482
5.55	3.07686
5.56	3.08015
5.57	3.08673
5.58	3.0864
5.59	3.10449
5.6	3.13245
5.61	3.07719
5.62	3.03673
5.63	3.07324
5.64	3.07357
5.65	3.07785
5.66	3.05745
5.67	3.05284
5.68	3.05284
5.69	3.08673
5.7	3.08607
5.71	3.06041
5.72	3.0535
5.73	3.08541
5.74	3.09791
5.75	3.08377
5.76	3.08278
5.77	3.11337
5.78	3.07883
5.79	3.08607
5.8	3.11271
5.81	3.09725
5.82	3.0716
5.83	3.07192
5.84	3.06041
5.85	3.05153
5.86	3.06929
5.87	3.06074
5.88	3.05811
5.89	3.07423
5.9	3.0841
5.91	3.07324
5.92	3.07488
5.93	3.07488
5.94	3.1035
5.95	3.10285
5.96	3.06337
5.97	3.06699
5.98	3.08903
5.99	3.10943
6	3.07456
6.01	3.07521
6.02	3.09627
6.03	3.07456
6.04	3.08048
6.05	3.06107
6.06	3.06074
6.07	3.05909
6.08	3.0387
6.09	3.06074
6.1	3.06567
6.11	3.04232
6.12	3.07653
6.13	3.07094
6.14	3.0762
6.15	3.07521
6.16	3.05186
6.17	3.07094
6.18	3.06962
6.19	3.06074
6.2	3.0785
6.21	3.05909
6.22	3.04725
6.23	3.09561
6.24	3.09067
6.25	3.07883
6.26	3.06074
6.27	3.05646
6.28	3.03113
6.29	3.03903
6.3	3.0433
6.31	3.06502
6.32	3.02324
6.33	3.0285
6.34	3.03541
6.35	3.05745
6.36	3.08015
6.37	3.08508
6.38	3.03508
6.39	3.04627
6.4	3.07752
6.41	3.05219
6.42	3.0637
6.43	3.07061
6.44	3.07291
6.45	3.08771
6.46	3.07521
6.47	3.06337
6.48	3.05679
6.49	3.06765
6.5	3.08048
6.51	3.08739
6.52	3.09199
6.53	3.05646
6.54	3.04725
6.55	3.0489
6.56	3.06107
6.57	3.04133
6.58	3.08508
6.59	3.06798
6.6	3.0387
6.61	3.03771
6.62	3.03212
6.63	3.05416
6.64	3.03607
6.65	3.05877
6.66	3.07423
6.67	3.05054
6.68	3.06403
6.69	3.08936
6.7	3.07225
6.71	3.04627
6.72	3.05745
6.73	3.04363
6.74	3.04232
6.75	3.04627
6.76	3.04528
6.77	3.05284
6.78	3.06304
6.79	3.066
6.8	3.03936
6.81	3.0512
6.82	3.05219
6.83	3.05581
6.84	3.0535
6.85	3.0285
6.86	3.03245
6.87	3.05153
6.88	3.05219
6.89	3.041
6.9	3.09265
6.91	3.07785
6.92	3.02949
6.93	3.04133
6.94	3.03376
6.95	3.06699
6.96	3.09824
6.97	3.06699
6.98	3.04495
6.99	3.05416
7	3.05877
7.01	3.10021
7.02	3.06074
7.03	3.04627
7.04	3.07686
7.05	3.07521
7.06	3.07028
7.07	3.02653
7.08	3.03837
7.09	3.03048
7.1	3.03837
7.11	3.06633
7.12	3.10482
7.13	3.07423
7.14	3.04725
7.15	3.07488
7.16	3.0739
7.17	3.07094
7.18	3.03409
7.19	3.04791
7.2	3.05548
7.21	3.05844
7.22	3.0489
7.23	3.04034
7.24	3.07949
7.25	3.04692
7.26	3.03508
7.27	3.03837
7.28	2.99692
7.29	3.03903
7.3	3.06403
7.31	3.02587
7.32	3.03245
7.33	3.06403
7.34	3.03804
7.35	3.04396
7.36	3.02324
7.37	3.07785
7.38	3.00909
7.39	3.0364
7.4	3.04429
7.41	3.04396
7.42	3.02258
7.43	3.06666
7.44	3.05778
7.45	3.05679
7.46	3.06896
7.47	3.05548
7.48	3.04791
7.49	3.0489
7.5	3.05975
7.51	3.066
7.52	3.06304
7.53	3.05021
7.54	3.05317
7.55	3.06074
7.56	3.09298
7.57	3.06896
7.58	3.0535
7.59	3.05054
7.6	3.03048
7.61	2.99857
7.62	3.04298
7.63	3.02324
7.64	3.08245
7.65	3.03344
7.66	2.98804
7.67	3.04298
7.68	3.06271
7.69	3.06107
7.7	3.01436
7.71	3.01929
7.72	3.05679
7.73	3.05745
7.74	3.07752
7.75	3.07521
7.76	3.01041
7.77	3.01765
7.78	3.01534
7.79	3.0364
7.8	3.04923
7.81	3.01436
7.82	3.01699
7.83	3.05548
7.84	3.05317
7.85	3.07127
7.86	3.05252
7.87	3.0739
7.88	3.03541
7.89	3.01008
7.9	3.06732
7.91	3.08673
7.92	3.04758
7.93	3.02357
7.94	3.04298
7.95	3.03804
7.96	3.03738
7.97	3.04199
7.98	3.02949
7.99	3.02126
8	3.03409
8.01	3.03804
8.02	3.02225
8.03	3.02686
8.04	3.03015
8.05	3.01995
8.06	3.02784
8.07	3.03475
8.08	3.05383
8.09	3.04561
8.1	3.04594
8.11	3.02784
8.12	3.04955
8.13	3.02225
8.14	3.00186
8.15	2.98804
8.16	3.04034
8.17	3.04955
8.18	3.01469
8.19	3.02686
8.2	3.03969
8.21	3.03376
8.22	2.99922
8.23	3.03015
8.24	3.03837
8.25	3.0262
8.26	3.03673
8.27	3.01337
8.28	3.05021
8.29	3.02159
8.3	3.0614
8.31	3.04594
8.32	3.02028
8.33	3.00811
8.34	3.03376
8.35	3.04232
8.36	3.06502
8.37	3.00909
8.38	3.04265
8.39	3.03804
8.4	3.0308
8.41	3.04199
8.42	3.04166
8.43	3.02258
8.44	3.00844
8.45	3.0489
8.46	3.00745
8.47	3.02258
8.48	3.04659
8.49	3.02192
8.5	3.03903
8.51	3.04199
8.52	3.00021
8.53	3.01107
8.54	3.02028
8.55	3.03705
8.56	3.05021
8.57	3.05252
8.58	3.03278
8.59	3.04363
8.6	3.05844
8.61	3.05317
8.62	3.05581
8.63	3.01501
8.64	3.00844
8.65	3.03673
8.66	3.00515
8.67	2.98607
8.68	3.0387
8.69	3.05679
8.7	3.03179
8.71	3.03607
8.72	3.03212
8.73	3.03705
8.74	3.01666
8.75	3.00876
8.76	3.02949
8.77	3.00975
8.78	3.00909
8.79	3.03146
8.8	3.05383
8.81	3.00021
8.82	3.02028
8.83	3.0285
8.84	3.02258
8.85	3.0489
8.86	3.01436
8.87	3.02192
8.88	3.03015
8.89	3.01798
8.9	3.01041
8.91	3.02061
8.92	3.01896
8.93	3.0035
8.94	3.00087
8.95	3.03245
8.96	3.00844
8.97	3.05087
8.98	3.03969
8.99	3.01436
9	3.00449
9.01	3.01995
9.02	3.03738
9.03	3.02126
9.04	3.041
9.05	3.0137
9.06	3.00712
9.07	2.99955
9.08	3.00909
9.09	3.04659
9.1	3.03245
9.11	3.01337
9.12	3.0137
9.13	3.05581
9.14	3.02423
9.15	3.0137
9.16	3.03311
9.17	3.01205
9.18	3.03376
9.19	3.02784
9.2	3.03673
9.21	3.01107
9.22	3.05515
9.23	3.0239
9.24	2.9808
9.25	3.0058
9.26	3.04627
9.27	3.0364
9.28	3.01041
9.29	3.0035
9.3	3.00219
9.31	3.02982
9.32	3.01699
9.33	3.0308
9.34	2.99988
9.35	3.02751
9.36	3.03771
9.37	3.04265
9.38	2.98804
9.39	2.99955
9.4	3.02159
9.41	3.016
9.42	3.01798
9.43	2.97982
9.44	3.00778
9.45	3.00811
9.46	2.99955
9.47	3.01567
9.48	3.0114
9.49	3.00613
9.5	3.01863
9.51	3.0012
9.52	2.97258
9.53	3.00317
9.54	3.00876
9.55	3.00482
9.56	3.00811
9.57	3.05909
9.58	3.03179
9.59	3.0058
9.6	2.99955
9.61	3.00383
9.62	3.00745
9.63	3.03311
9.64	3.04067
9.65	3.04429
9.66	3.03311
9.67	3.02883
9.68	3.02258
9.69	3.00745
9.7	3.00778
9.71	2.99824
9.72	3.01962
9.73	3.03969
9.74	3.00482
9.75	3.04166
9.76	3.02949
9.77	3.03837
9.78	3.01205
9.79	3.01403
9.8	3.00778
9.81	3.05679
9.82	2.99429
9.83	3.03442
9.84	3.0239
9.85	3.01436
9.86	3.03146
9.87	3.0433
9.88	3.01501
9.89	3.016
9.9	3.02094
9.91	2.99955
9.92	3.0183
9.93	2.9989
9.94	3.02751
9.95	3.0012
9.96	2.98541
9.97	2.96732
9.98	2.99232
9.99	3.01041
10	3.01008
10.01	3.01008
10.02	2.99955
10.03	2.99659
10.04	2.98278
10.05	3.01765
10.06	3.01436
10.07	2.97751
10.08	3.0035
10.09	3.03837
10.1	3.01699
10.11	2.99462
10.12	3.02455
10.13	3.00975
10.14	2.99725
10.15	3.01995
10.16	3.02719
10.17	3.01962
10.18	3.00087
10.19	2.99001
10.2	2.9864
10.21	3.03113
10.22	3.02751
10.23	3.04199
10.24	3.01929
10.25	3.02159
10.26	2.99922
10.27	3.05317
10.28	3.0239
10.29	3.02126
10.3	3.01304
10.31	3.00811
10.32	3.02455
10.33	3.01469
10.34	3.00054
10.35	2.95087
10.36	3.00054
10.37	2.98968
10.38	2.97686
10.39	2.98804
10.4	3.01205
10.41	3.00909
10.42	3.00679
10.43	2.99462
10.44	2.96304
10.45	2.9808
10.46	3.01633
10.47	3.01205
10.48	2.98574
10.49	3.02949
10.5	3.0012
10.51	3.0364
10.52	3.00679
10.53	3.01074
10.54	3.02883
10.55	3.03212
10.56	3.00942
10.57	2.97653
10.58	3.00449
10.59	2.9864
10.6	2.99133
10.61	3.0308
10.62	3.01304
10.63	3.02949
10.64	2.98903
10.65	3.00745
10.66	2.98672
10.67	3.00087
10.68	3.00909
10.69	3.00547
10.7	2.98212
10.71	2.97488
10.72	2.97554
10.73	2.98968
10.74	2.99429
10.75	3.00679
10.76	3.00054
10.77	3.02028
10.78	3.03146
10.79	2.99692
10.8	3.02192
10.81	3.03311
10.82	2.99363
10.83	2.98376
10.84	2.96962
10.85	2.99429
10.86	3.02719
10.87	2.99265
10.88	3.0114
10.89	2.99166
10.9	2.98738
10.91	2.97488
10.92	2.98245
10.93	2.99297
10.94	2.98672
10.95	3.01107
10.96	3.00942
10.97	3.0012
10.98	2.99199
10.99	2.97949
11	3.01798
11.01	3.03179
11.02	3.00449
11.03	3.0035
11.04	3.00679
11.05	2.95383
11.06	3.01995
11.07	3.0433
11.08	3.01699
11.09	3.03212
11.1	3.0137
11.11	3.00449
11.12	3.00679
11.13	2.98508
11.14	2.98179
11.15	3.016
11.16	2.99462
11.17	3.01699
11.18	3.04232
11.19	3.04002
11.2	3.03245
11.21	3.04034
11.22	2.99561
11.23	2.99429
11.24	2.98146
11.25	2.98738
11.26	3.00021
11.27	2.98541
11.28	2.98047
11.29	2.99495
11.3	2.98541
11.31	2.99692
11.32	3.01074
11.33	2.9989
11.34	3.01403
11.35	3.00219
11.36	3.01041
11.37	3.00449
11.38	2.97949
11.39	2.98903
11.4	3.00021
11.41	3.02357
11.42	3.01567
11.43	3.01929
11.44	2.97389
11.45	2.99824
11.46	2.98409
11.47	2.97488
11.48	2.96896
11.49	3.00219
11.5	3.01436
11.51	3.00547
11.52	2.98672
11.53	2.99232
11.54	2.99528
11.55	3.00054
11.56	2.98705
11.57	2.98014
11.58	2.96403
11.59	2.96863
11.6	2.9808
11.61	2.98409
11.62	2.98146
11.63	3.02587
11.64	3.00876
11.65	3.01896
11.66	2.99692
11.67	3.016
11.68	2.9887
11.69	2.97916
11.7	2.98245
11.71	2.99067
11.72	2.96435
11.73	2.98442
11.74	2.97554
11.75	2.98705
11.76	2.99429
11.77	2.97653
11.78	3.01172
11.79	3.00383
11.8	2.98541
11.81	2.98771
11.82	3.00942
11.83	2.99133
11.84	2.99955
11.85	3.00811
11.86	3.01962
11.87	2.98442
11.88	3.00482
11.89	3.01633
11.9	2.99265
11.91	2.98804
11.92	3.02521
11.93	3.01732
11.94	2.9933
11.95	3.01041
11.96	3.00186
11.97	2.96468
11.98	2.98837
11.99	3.00186
12	3.00547
12.01	2.98146
12.02	2.96666
12.03	2.94462
12.04	2.98968
12.05	2.99922
12.06	3.02225
12.07	3.01304
12.08	2.96468
12.09	2.96863
12.1	2.99232
12.11	3.0058
12.12	3.00416
12.13	3.01666
12.14	2.99363
12.15	3.01238
12.16	3.00219
12.17	2.99495
12.18	2.98936
12.19	3.02159
12.2	2.99528
12.21	2.97817
12.22	2.98113
12.23	2.98738
12.24	2.98409
12.25	2.96929
12.26	2.9762
12.27	2.97291
12.28	2.96929
12.29	2.99462
12.3	3.00547
12.31	2.99067
12.32	2.95909
12.33	3.00515
12.34	2.99133
12.35	3.00284
12.36	3.00876
12.37	2.99067
12.38	3.00251
12.39	3.00482
12.4	2.96501
12.41	2.98179
12.42	3.00317
12.43	2.98212
12.44	2.95416
12.45	2.97357
12.46	2.96666
12.47	2.96896
12.48	2.9864
12.49	3.0137
12.5	2.98672
12.51	2.9933
12.52	3.00284
12.53	3.01436
12.54	3.01238
12.55	2.96205
12.56	2.98541
12.57	3.01205
12.58	2.99199
12.59	2.97291
12.6	2.98278
12.61	2.97982
12.62	2.97916
12.63	2.97028
12.64	2.96107
12.65	2.98311
12.66	3.00087
12.67	3.00547
12.68	2.98376
12.69	2.97916
12.7	2.99232
12.71	3.02061
12.72	2.991
12.73	2.98903
12.74	2.98343
12.75	2.98376
12.76	2.98804
12.77	2.98672
12.78	2.96468
12.79	2.96238
12.8	2.98672
12.81	2.97949
12.82	2.991
12.83	3.00284
12.84	2.99791
12.85	3.02817
12.86	3.00416
12.87	2.99232
12.88	3.00153
12.89	2.96534
12.9	3.00547
12.91	2.97982
12.92	2.98738
12.93	2.99232
12.94	2.98771
12.95	2.98837
12.96	2.95712
12.97	2.99166
12.98	3.01304
12.99	2.98475
13	2.98968
13.01	3.02686
13.02	3.00613
13.03	2.98179
13.04	2.98212
13.05	2.99297
13.06	2.96172
13.07	3.00613
13.08	3.01271
13.09	2.99528
13.1	2.97357
13.11	2.99034
13.12	2.98574
13.13	2.97389
13.14	2.98442
13.15	2.99199
13.16	2.97949
13.17	2.9785
13.18	2.97126
13.19	2.97126
13.2	2.97192
13.21	2.98804
13.22	2.96205
13.23	2.95482
13.24	2.97488
13.25	2.96304
13.26	2.96666
13.27	3.01534
13.28	3.0183
13.29	3.00547
13.3	2.97291
13.31	3.00153
13.32	2.97751
13.33	2.93804
13.34	2.94067
13.35	2.97949
13.36	2.98311
13.37	2.98442
13.38	2.99067
13.39	2.97192
13.4	2.99067
13.41	2.98113
13.42	2.97883
13.43	2.97357
13.44	2.98837
13.45	2.97751
13.46	2.96633
13.47	2.97324
13.48	3.00219
13.49	3.00613
13.5	2.94889
13.51	2.97488
13.52	2.97982
13.53	2.97061
13.54	2.97916
13.55	2.99692
13.56	2.99232
13.57	2.99528
13.58	3.00087
13.59	2.99232
13.6	2.96896
13.61	2.99692
13.62	2.95843
13.63	2.97061
13.64	3.00449
13.65	2.99758
13.66	2.96633
13.67	2.96271
13.68	2.9433
13.69	2.97291
13.7	2.99561
13.71	2.96732
13.72	2.9933
13.73	3.01238
13.74	2.9933
