"BIO-KINE ASCII FILE"
"_COMMENT"	"MOS-500 Spectrometer"
"_COMMENT"	"Kinetics measurement"
"_COMMENT"	"Y Unit : Volt,  X Unit : s"
"_COMMENT"	"Excitation wavelength : 380 nm"
"_COMMENT"	"Fentes bandwidth =  1 nm"
"_COMMENT"	"HV= 575V"
"_COMMENT"	"Timebase  1 =  .01 s   3001 pts"
"_SFM"	"SFM-400 /S  Advanced mode"
"_SFM"	"Ratio : S1: 2.5, S2: 0, S3: 0, S4: 1"
"_SFM"	"Content : S1: , S2: , S3: , S4:"
"_SFM"	"Concentration : S1: , S2: , S3: , S4:"
"_SFM"	"Total volume : 209 µl  Flow : 3.5 mL/s"
"_SFM"	"Acquisition start :  10 ms before stop"
"_SFM"	"cuve=FC-15, s1=10 ml , s2=10 ml , s3=10 ml , s4=1.9 ml"
"_UNITX"	"s"
"_UNITY"	"Volt"
"_DELTAX"	0
"_DATA"
1e-300	5.54042
0.01	5.94471
0.02	6.17564
0.03	6.21281
0.04	6.20788
0.05	6.20557
0.06	6.22301
0.07	6.22827
0.08	6.23025
0.09	6.24044
0.1	6.23617
0.11	6.23255
0.12	6.23979
0.13	6.24472
0.14	6.24439
0.15	6.24571
0.16	6.24604
0.17	6.2411
0.18	6.23419
0.19	6.23682
0.2	6.23682
0.21	6.2388
0.22	6.23222
0.23	6.22794
0.24	6.23057
0.25	6.23419
0.26	6.22926
0.27	6.22301
0.28	6.2184
0.29	6.22071
0.3	6.21478
0.31	6.21972
0.32	6.21215
0.33	6.20228
0.34	6.20393
0.35	6.19669
0.36	6.19439
0.37	6.1911
0.38	6.18649
0.39	6.18584
0.4	6.1809
0.41	6.1832
0.42	6.17169
0.43	6.16676
0.44	6.16248
0.45	6.15952
0.46	6.15656
0.47	6.15097
0.48	6.14537
0.49	6.14537
0.5	6.13748
0.51	6.12926
0.52	6.12301
0.53	6.12366
0.54	6.11774
0.55	6.11445
0.56	6.11511
0.57	6.10787
0.58	6.10491
0.59	6.10425
0.6	6.0934
0.61	6.09274
0.62	6.08682
0.63	6.08419
0.64	6.07531
0.65	6.07596
0.66	6.07103
0.67	6.06939
0.68	6.06741
0.69	6.06149
0.7	6.0536
0.71	6.04833
0.72	6.04077
0.73	6.03912
0.74	6.04011
0.75	6.03057
0.76	6.02859
0.77	6.02859
0.78	6.01215
0.79	6.0105
0.8	6.01412
0.81	6.00952
0.82	6.00294
0.83	5.99504
0.84	5.98616
0.85	5.98912
0.86	5.9878
0.87	5.98057
0.88	5.98123
0.89	5.97267
0.9	5.96642
0.91	5.95293
0.92	5.95754
0.93	5.95195
0.94	5.94668
0.95	5.93813
0.96	5.92859
0.97	5.92629
0.98	5.92596
0.99	5.92892
1	5.92333
1.01	5.91642
1.02	5.9128
1.03	5.90754
1.04	5.90622
1.05	5.89899
1.06	5.89635
1.07	5.88714
1.08	5.87958
1.09	5.87727
1.1	5.87596
1.11	5.87333
1.12	5.87037
1.13	5.8628
1.14	5.85951
1.15	5.85425
1.16	5.84833
1.17	5.85359
1.18	5.84438
1.19	5.83616
1.2	5.83221
1.21	5.82563
1.22	5.8276
1.23	5.82596
1.24	5.81938
1.25	5.8105
1.26	5.79898
1.27	5.79635
1.28	5.80063
1.29	5.79734
1.3	5.78911
1.31	5.78484
1.32	5.78023
1.33	5.77563
1.34	5.77267
1.35	5.76971
1.36	5.76214
1.37	5.75786
1.38	5.75293
1.39	5.75655
1.4	5.74668
1.41	5.74569
1.42	5.74109
1.43	5.73747
1.44	5.73418
1.45	5.7276
1.46	5.72398
1.47	5.71609
1.48	5.71444
1.49	5.71148
1.5	5.69898
1.51	5.69536
1.52	5.68911
1.53	5.68516
1.54	5.68023
1.55	5.67628
1.56	5.67036
1.57	5.66872
1.58	5.66345
1.59	5.64931
1.6	5.65227
1.61	5.64931
1.62	5.64503
1.63	5.63714
1.64	5.63779
1.65	5.62793
1.66	5.62299
1.67	5.61937
1.68	5.6095
1.69	5.60852
1.7	5.60325
1.71	5.60128
1.72	5.5901
1.73	5.58746
1.74	5.58154
1.75	5.57365
1.76	5.56641
1.77	5.5674
1.78	5.55983
1.79	5.55292
1.8	5.54569
1.81	5.54273
1.82	5.5368
1.83	5.53154
1.84	5.53121
1.85	5.52825
1.86	5.51575
1.87	5.51608
1.88	5.50753
1.89	5.50687
1.9	5.49766
1.91	5.49503
1.92	5.4924
1.93	5.48088
1.94	5.4845
1.95	5.47628
1.96	5.46707
1.97	5.46082
1.98	5.4595
1.99	5.45391
2	5.44503
2.01	5.44108
2.02	5.43549
2.03	5.43384
2.04	5.42693
2.05	5.41641
2.06	5.41706
2.07	5.4118
2.08	5.41147
2.09	5.41114
2.1	5.40687
2.11	5.397
2.12	5.39042
2.13	5.3868
2.14	5.38022
2.15	5.37627
2.16	5.37397
2.17	5.37265
2.18	5.36509
2.19	5.36081
2.2	5.35292
2.21	5.34864
2.22	5.34732
2.23	5.34075
2.24	5.33088
2.25	5.33154
2.26	5.32693
2.27	5.31739
2.28	5.31213
2.29	5.30851
2.3	5.31048
2.31	5.29667
2.32	5.29338
2.33	5.28877
2.34	5.28055
2.35	5.27759
2.36	5.27824
2.37	5.27199
2.38	5.26541
2.39	5.26607
2.4	5.25653
2.41	5.25259
2.42	5.24666
2.43	5.24403
2.44	5.23153
2.45	5.23087
2.46	5.22693
2.47	5.22627
2.48	5.22035
2.49	5.22068
2.5	5.20818
2.51	5.20719
2.52	5.19962
2.53	5.19304
2.54	5.18646
2.55	5.18285
2.56	5.17396
2.57	5.17298
2.58	5.16377
2.59	5.16377
2.6	5.15785
2.61	5.15554
2.62	5.14929
2.63	5.146
2.64	5.146
2.65	5.13548
2.66	5.12923
2.67	5.12923
2.68	5.12659
2.69	5.11409
2.7	5.11212
2.71	5.10225
2.72	5.10521
2.73	5.09863
2.74	5.09337
2.75	5.08844
2.76	5.08646
2.77	5.08219
2.78	5.07659
2.79	5.06738
2.8	5.06508
2.81	5.06442
2.82	5.06179
2.83	5.06047
2.84	5.05159
2.85	5.04534
2.86	5.03975
2.87	5.04139
2.88	5.03679
2.89	5.03021
2.9	5.01804
2.91	5.01278
2.92	5.01376
2.93	5.00883
2.94	5.00093
2.95	4.996
2.96	4.99764
2.97	4.99008
2.98	4.98251
2.99	4.98185
3	4.97593
3.01	4.9756
3.02	4.97166
3.03	4.96935
3.04	4.95554
3.05	4.95455
3.06	4.95027
3.07	4.94501
3.08	4.94435
3.09	4.93942
3.1	4.93646
3.11	4.92823
3.12	4.92264
3.13	4.92198
3.14	4.91705
3.15	4.91211
3.16	4.90685
3.17	4.9006
3.18	4.90619
3.19	4.896
3.2	4.89139
3.21	4.88317
3.22	4.88218
3.23	4.88448
3.24	4.87692
3.25	4.87034
3.26	4.86738
3.27	4.86211
3.28	4.85751
3.29	4.85192
3.3	4.84764
3.31	4.84468
3.32	4.83941
3.33	4.83941
3.34	4.82922
3.35	4.82626
3.36	4.82691
3.37	4.81935
3.38	4.81244
3.39	4.80915
3.4	4.80455
3.41	4.80257
3.42	4.79928
3.43	4.79435
3.44	4.7881
3.45	4.78547
3.46	4.77724
3.47	4.7779
3.48	4.77132
3.49	4.77066
3.5	4.76836
3.51	4.76408
3.52	4.75718
3.53	4.75553
3.54	4.74928
3.55	4.74698
3.56	4.74171
3.57	4.73875
3.58	4.73481
3.59	4.72658
3.6	4.72296
3.61	4.72757
3.62	4.71606
3.63	4.70948
3.64	4.70882
3.65	4.70224
3.66	4.69961
3.67	4.69796
3.68	4.69138
3.69	4.68645
3.7	4.68711
3.71	4.68513
3.72	4.68184
3.73	4.68053
3.74	4.66934
3.75	4.66836
3.76	4.66145
3.77	4.6575
3.78	4.64796
3.79	4.64566
3.8	4.64895
3.81	4.64369
3.82	4.63743
3.83	4.63546
3.84	4.63415
3.85	4.6279
3.86	4.62164
3.87	4.61605
3.88	4.61375
3.89	4.61539
3.9	4.61178
3.91	4.60651
3.92	4.60388
3.93	4.59895
3.94	4.59599
3.95	4.59566
3.96	4.59007
3.97	4.5848
3.98	4.58513
3.99	4.57625
4	4.57658
4.01	4.57658
4.02	4.5723
4.03	4.56408
4.04	4.55881
4.05	4.55355
4.06	4.54927
4.07	4.5496
4.08	4.54993
4.09	4.54006
4.1	4.53381
4.11	4.52987
4.12	4.5246
4.13	4.52329
4.14	4.5246
4.15	4.51901
4.16	4.51868
4.17	4.51539
4.18	4.50947
4.19	4.5019
4.2	4.49763
4.21	4.49467
4.22	4.49335
4.23	4.48842
4.24	4.48644
4.25	4.48217
4.26	4.4825
4.27	4.48118
4.28	4.47592
4.29	4.47
4.3	4.46572
4.31	4.46078
4.32	4.45618
4.33	4.45388
4.34	4.45453
4.35	4.45059
4.36	4.45026
4.37	4.44138
4.38	4.44171
4.39	4.43545
4.4	4.4292
4.41	4.43118
4.42	4.42986
4.43	4.42164
4.44	4.41703
4.45	4.41539
4.46	4.41144
4.47	4.41111
4.48	4.40289
4.49	4.40059
4.5	4.39565
4.51	4.39466
4.52	4.39302
4.53	4.39302
4.54	4.39269
4.55	4.38512
4.56	4.37953
4.57	4.3769
4.58	4.3769
4.59	4.37756
4.6	4.37558
4.61	4.36999
4.62	4.37295
4.63	4.36933
4.64	4.35453
4.65	4.35289
4.66	4.34664
4.67	4.34729
4.68	4.34466
4.69	4.34203
4.7	4.34039
4.71	4.33446
4.72	4.33052
4.73	4.3269
4.74	4.32558
4.75	4.31407
4.76	4.31374
4.77	4.31703
4.78	4.31242
4.79	4.30749
4.8	4.30617
4.81	4.3065
4.82	4.2996
4.83	4.29236
4.84	4.2894
4.85	4.28808
4.86	4.28282
4.87	4.28315
4.88	4.28019
4.89	4.27624
4.9	4.27262
4.91	4.27525
4.92	4.26769
4.93	4.26802
4.94	4.25979
4.95	4.25946
4.96	4.25782
4.97	4.25716
4.98	4.25453
4.99	4.24334
5	4.24367
5.01	4.24433
5.02	4.24137
5.03	4.23973
5.04	4.23446
5.05	4.23084
5.06	4.22558
5.07	4.22722
5.08	4.22591
5.09	4.22295
5.1	4.21308
5.11	4.21538
5.12	4.21176
5.13	4.20486
5.14	4.20222
5.15	4.2065
5.16	4.20288
5.17	4.19992
5.18	4.20124
5.19	4.19532
5.2	4.19499
5.21	4.18676
5.22	4.1861
5.23	4.18413
5.24	4.18808
5.25	4.18249
5.26	4.17887
5.27	4.17689
5.28	4.16999
5.29	4.16703
5.3	4.16933
5.31	4.16637
5.32	4.16341
5.33	4.16341
5.34	4.16275
5.35	4.15781
5.36	4.15124
5.37	4.15255
5.38	4.14663
5.39	4.14893
5.4	4.14301
5.41	4.13841
5.42	4.13676
5.43	4.13808
5.44	4.13347
5.45	4.12722
5.46	4.13051
5.47	4.12689
5.48	4.12525
5.49	4.11604
5.5	4.11669
5.51	4.1111
5.52	4.11373
5.53	4.11373
5.54	4.10979
5.55	4.10814
5.56	4.10551
5.57	4.10288
5.58	4.0963
5.59	4.09169
5.6	4.09564
5.61	4.09301
5.62	4.08939
5.63	4.08939
5.64	4.0884
5.65	4.0861
5.66	4.08281
5.67	4.07985
5.68	4.07952
5.69	4.07558
5.7	4.07097
5.71	4.06801
5.72	4.06801
5.73	4.06735
5.74	4.06307
5.75	4.06669
5.76	4.06505
5.77	4.06373
5.78	4.0588
5.79	4.05485
5.8	4.0509
5.81	4.04696
5.82	4.04893
5.83	4.04893
5.84	4.04038
5.85	4.03873
5.86	4.04136
5.87	4.03742
5.88	4.03577
5.89	4.03051
5.9	4.03248
5.91	4.02919
5.92	4.03117
5.93	4.02492
5.94	4.0259
5.95	4.01702
5.96	4.01636
5.97	4.01735
5.98	4.01274
5.99	4.01143
6	4.00913
6.01	4.01011
6.02	4.00386
6.03	4.00123
6.04	4.00288
6.05	4.00485
6.06	4.00386
6.07	3.99465
6.08	3.99761
6.09	3.99169
6.1	3.99366
6.11	3.98906
6.12	3.9884
6.13	3.98544
6.14	3.98051
6.15	3.97919
6.16	3.98182
6.17	3.98116
6.18	3.98182
6.19	3.97722
6.2	3.96965
6.21	3.97195
6.22	3.96899
6.23	3.97031
6.24	3.96702
6.25	3.9657
6.26	3.96044
6.27	3.95781
6.28	3.96077
6.29	3.95715
6.3	3.96011
6.31	3.95682
6.32	3.95583
6.33	3.94728
6.34	3.94629
6.35	3.94629
6.36	3.94399
6.37	3.94564
6.38	3.94761
6.39	3.93675
6.4	3.9361
6.41	3.93182
6.42	3.93478
6.43	3.93248
6.44	3.93018
6.45	3.9305
6.46	3.9259
6.47	3.92623
6.48	3.92064
6.49	3.92261
6.5	3.92524
6.51	3.92228
6.52	3.91932
6.53	3.91636
6.54	3.918
6.55	3.91208
6.56	3.91373
6.57	3.91307
6.58	3.91175
6.59	3.91175
6.6	3.90748
6.61	3.9055
6.62	3.9055
6.63	3.90452
6.64	3.90024
6.65	3.89267
6.66	3.89399
6.67	3.89596
6.68	3.89333
6.69	3.89596
6.7	3.88774
6.71	3.8907
6.72	3.89235
6.73	3.8884
6.74	3.88642
6.75	3.8861
6.76	3.88511
6.77	3.87985
6.78	3.88017
6.79	3.88149
6.8	3.87754
6.81	3.8759
6.82	3.87063
6.83	3.86866
6.84	3.87031
6.85	3.87096
6.86	3.86438
6.87	3.86504
6.88	3.86406
6.89	3.86406
6.9	3.86077
6.91	3.85945
6.92	3.8578
6.93	3.8578
6.94	3.85649
6.95	3.84991
6.96	3.84629
6.97	3.84859
6.98	3.84892
6.99	3.84761
7	3.84794
7.01	3.84761
7.02	3.84859
7.03	3.84728
7.04	3.83971
7.05	3.84498
7.06	3.84037
7.07	3.83609
7.08	3.83609
7.09	3.83116
7.1	3.83379
7.11	3.82984
7.12	3.83182
7.13	3.83017
7.14	3.82886
7.15	3.82557
7.16	3.82984
7.17	3.82919
7.18	3.82228
7.19	3.82129
7.2	3.81965
7.21	3.81767
7.22	3.82162
7.23	3.818
7.24	3.81669
7.25	3.81504
7.26	3.81142
7.27	3.81142
7.28	3.81537
7.29	3.81274
7.3	3.81175
7.31	3.81175
7.32	3.81241
7.33	3.8134
7.34	3.80945
7.35	3.8055
7.36	3.79859
7.37	3.8032
7.38	3.8055
7.39	3.80418
7.4	3.80221
7.41	3.80024
7.42	3.79432
7.43	3.793
7.44	3.79629
7.45	3.79234
7.46	3.79103
7.47	3.79333
7.48	3.79267
7.49	3.79136
7.5	3.79037
7.51	3.78675
7.52	3.78642
7.53	3.78313
7.54	3.78116
7.55	3.77984
7.56	3.7828
7.57	3.78116
7.58	3.78346
7.59	3.77754
7.6	3.7726
7.61	3.77557
7.62	3.77491
7.63	3.77951
7.64	3.77524
7.65	3.76734
7.66	3.76964
7.67	3.76734
7.68	3.76537
7.69	3.76899
7.7	3.76471
7.71	3.76701
7.72	3.7657
7.73	3.76471
7.74	3.76339
7.75	3.76372
7.76	3.76076
7.77	3.75681
7.78	3.76142
7.79	3.75747
7.8	3.7578
7.81	3.75813
7.82	3.76274
7.83	3.7578
7.84	3.74925
7.85	3.75221
7.86	3.75484
7.87	3.74793
7.88	3.74892
7.89	3.74958
7.9	3.74695
7.91	3.74728
7.92	3.74366
7.93	3.74728
7.94	3.74563
7.95	3.74497
7.96	3.7407
7.97	3.74004
7.98	3.73741
7.99	3.73971
8	3.74168
8.01	3.74135
8.02	3.74037
8.03	3.73083
8.04	3.7328
8.05	3.73181
8.06	3.73708
8.07	3.73181
8.08	3.73181
8.09	3.73017
8.1	3.73379
8.11	3.73116
8.12	3.7282
8.13	3.73083
8.14	3.72951
8.15	3.72918
8.16	3.73017
8.17	3.73017
8.18	3.72721
8.19	3.72458
8.2	3.71997
8.21	3.72129
8.22	3.71997
8.23	3.72491
8.24	3.72162
8.25	3.71866
8.26	3.71997
8.27	3.7203
8.28	3.71931
8.29	3.71668
8.3	3.71635
8.31	3.71602
8.32	3.71208
8.33	3.71438
8.34	3.71372
8.35	3.71043
8.36	3.70977
8.37	3.70583
8.38	3.70484
8.39	3.70648
8.4	3.69892
8.41	3.69991
8.42	3.70418
8.43	3.70681
8.44	3.70484
8.45	3.70254
8.46	3.69563
8.47	3.6976
8.48	3.69892
8.49	3.69925
8.5	3.69793
8.51	3.69662
8.52	3.69365
8.53	3.69398
8.54	3.6874
8.55	3.69201
8.56	3.69037
8.57	3.69398
8.58	3.69102
8.59	3.68938
8.6	3.68477
8.61	3.68675
8.62	3.68444
8.63	3.68609
8.64	3.68839
8.65	3.68708
8.66	3.68379
8.67	3.68083
8.68	3.68477
8.69	3.68313
8.7	3.68477
8.71	3.68181
8.72	3.68576
8.73	3.68181
8.74	3.67819
8.75	3.67852
8.76	3.67721
8.77	3.6749
8.78	3.67951
8.79	3.68083
8.8	3.67326
8.81	3.68083
8.82	3.67655
8.83	3.67721
8.84	3.67392
8.85	3.67425
8.86	3.67129
8.87	3.66964
8.88	3.67194
8.89	3.67096
8.9	3.67194
8.91	3.66997
8.92	3.668
8.93	3.66734
8.94	3.66833
8.95	3.66865
8.96	3.66931
8.97	3.66964
8.98	3.66602
8.99	3.66865
9	3.67063
9.01	3.66635
9.02	3.66734
9.03	3.66602
9.04	3.66602
9.05	3.66569
9.06	3.66504
9.07	3.66438
9.08	3.66471
9.09	3.66175
9.1	3.66536
9.11	3.66339
9.12	3.66273
9.13	3.66273
9.14	3.6601
9.15	3.6601
9.16	3.65911
9.17	3.66109
9.18	3.6601
9.19	3.65813
9.2	3.65517
9.21	3.65484
9.22	3.65056
9.23	3.65023
9.24	3.65023
9.25	3.65056
9.26	3.6578
9.27	3.65681
9.28	3.6555
9.29	3.64793
9.3	3.64793
9.31	3.64826
9.32	3.64497
9.33	3.65188
9.34	3.64793
9.35	3.64957
9.36	3.6476
9.37	3.64694
9.38	3.64365
9.39	3.64201
9.4	3.64234
9.41	3.64102
9.42	3.64365
9.43	3.64365
9.44	3.64135
9.45	3.64365
9.46	3.64563
9.47	3.64003
9.48	3.63905
9.49	3.63707
9.5	3.64365
9.51	3.64431
9.52	3.64267
9.53	3.64431
9.54	3.63806
9.55	3.63576
9.56	3.63905
9.57	3.64003
9.58	3.64003
9.59	3.63576
9.6	3.63839
9.61	3.63313
9.62	3.64036
9.63	3.6374
9.64	3.63313
9.65	3.63773
9.66	3.63576
9.67	3.6374
9.68	3.63609
9.69	3.63181
9.7	3.63214
9.71	3.62984
9.72	3.63082
9.73	3.62918
9.74	3.62852
9.75	3.63247
9.76	3.63214
9.77	3.62753
9.78	3.6249
9.79	3.62819
9.8	3.62753
9.81	3.6226
9.82	3.6226
9.83	3.62424
9.84	3.62589
9.85	3.62622
9.86	3.62819
9.87	3.62457
9.88	3.62063
9.89	3.62227
9.9	3.62293
9.91	3.62096
9.92	3.6226
9.93	3.61898
9.94	3.62721
9.95	3.62063
9.96	3.61734
9.97	3.6203
9.98	3.61898
9.99	3.61668
10	3.61635
10.01	3.62096
10.02	3.62392
10.03	3.61931
10.04	3.61832
10.05	3.61964
10.06	3.61405
10.07	3.61273
10.08	3.61832
10.09	3.61471
10.1	3.61799
10.11	3.6124
10.12	3.60944
10.13	3.61339
10.14	3.61273
10.15	3.61438
10.16	3.61471
10.17	3.61405
10.18	3.61174
10.19	3.61503
10.2	3.61306
10.21	3.61405
10.22	3.61043
10.23	3.61142
10.24	3.60878
10.25	3.61076
10.26	3.6124
10.27	3.60878
10.28	3.60977
10.29	3.60319
10.3	3.6078
10.31	3.60977
10.32	3.61174
10.33	3.60418
10.34	3.60813
10.35	3.61109
10.36	3.60648
10.37	3.60484
10.38	3.6078
10.39	3.60845
10.4	3.6078
10.41	3.6078
10.42	3.60878
10.43	3.60517
10.44	3.60615
10.45	3.60188
10.46	3.59957
10.47	3.60188
10.48	3.5999
10.49	3.59628
10.5	3.59694
10.51	3.59892
10.52	3.5999
10.53	3.59727
10.54	3.59957
10.55	3.60089
10.56	3.59628
10.57	3.59826
10.58	3.59924
10.59	3.60122
10.6	3.5999
10.61	3.59234
10.62	3.59332
10.63	3.59563
10.64	3.59398
10.65	3.58938
10.66	3.58839
10.67	3.59497
10.68	3.59628
10.69	3.59563
10.7	3.59924
10.71	3.59332
10.72	3.59595
10.73	3.5976
10.74	3.59595
10.75	3.59201
10.76	3.59168
10.77	3.59102
10.78	3.58938
10.79	3.59201
10.8	3.58938
10.81	3.59398
10.82	3.58905
10.83	3.59069
10.84	3.58905
10.85	3.59036
10.86	3.58872
10.87	3.58806
10.88	3.58839
10.89	3.59036
10.9	3.58674
10.91	3.58773
10.92	3.58609
10.93	3.58609
10.94	3.58641
10.95	3.58345
10.96	3.58839
10.97	3.58806
10.98	3.59036
10.99	3.58839
11	3.58181
11.01	3.5851
11.02	3.5897
11.03	3.58707
11.04	3.58411
11.05	3.58839
11.06	3.58345
11.07	3.58707
11.08	3.58641
11.09	3.5851
11.1	3.58609
11.11	3.59036
11.12	3.59036
11.13	3.58543
11.14	3.59135
11.15	3.59168
11.16	3.59003
11.17	3.58576
11.18	3.58543
11.19	3.58313
11.2	3.58773
11.21	3.5851
11.22	3.58411
11.23	3.58378
11.24	3.58641
11.25	3.58345
11.26	3.58543
11.27	3.58181
11.28	3.58477
11.29	3.58609
11.3	3.58214
11.31	3.58181
11.32	3.58313
11.33	3.58148
11.34	3.58016
11.35	3.58082
11.36	3.57951
11.37	3.58181
11.38	3.57819
11.39	3.57655
11.4	3.5749
11.41	3.58345
11.42	3.58313
11.43	3.58016
11.44	3.57556
11.45	3.57655
11.46	3.57589
11.47	3.57589
11.48	3.57852
11.49	3.57359
11.5	3.57161
11.51	3.57655
11.52	3.58082
11.53	3.57984
11.54	3.57589
11.55	3.57326
11.56	3.56898
11.57	3.56898
11.58	3.57293
11.59	3.57227
11.6	3.57161
11.61	3.57128
11.62	3.5726
11.63	3.57161
11.64	3.57161
11.65	3.57359
11.66	3.57194
11.67	3.5726
11.68	3.56964
11.69	3.56799
11.7	3.57062
11.71	3.57161
11.72	3.57062
11.73	3.56832
11.74	3.57161
11.75	3.5703
11.76	3.56898
11.77	3.56734
11.78	3.56997
11.79	3.56964
11.8	3.56964
11.81	3.56635
11.82	3.56503
11.83	3.5647
11.84	3.56898
11.85	3.56503
11.86	3.56964
11.87	3.56635
11.88	3.56339
11.89	3.56701
11.9	3.56635
11.91	3.56832
11.92	3.56635
11.93	3.56865
11.94	3.56997
11.95	3.56766
11.96	3.56569
11.97	3.56602
11.98	3.56602
11.99	3.56437
12	3.56898
12.01	3.56569
12.02	3.56602
12.03	3.56668
12.04	3.55911
12.05	3.56273
12.06	3.56437
12.07	3.56766
12.08	3.56997
12.09	3.56832
12.1	3.5624
12.11	3.5624
12.12	3.56799
12.13	3.5647
12.14	3.56635
12.15	3.57128
12.16	3.56931
12.17	3.55878
12.18	3.56668
12.19	3.56405
12.2	3.55812
12.21	3.56437
12.22	3.56865
12.23	3.56668
12.24	3.5647
12.25	3.55845
12.26	3.56207
12.27	3.56372
12.28	3.56207
12.29	3.56207
12.3	3.56141
12.31	3.55747
12.32	3.56076
12.33	3.56076
12.34	3.56174
12.35	3.5601
12.36	3.5624
12.37	3.56076
12.38	3.55483
12.39	3.55681
12.4	3.56108
12.41	3.55516
12.42	3.55582
12.43	3.55845
12.44	3.55615
12.45	3.55451
12.46	3.55319
12.47	3.5578
12.48	3.55418
12.49	3.56273
12.5	3.55747
12.51	3.55418
12.52	3.55516
12.53	3.55253
12.54	3.55483
12.55	3.5522
12.56	3.55845
12.57	3.55319
12.58	3.55418
12.59	3.55648
12.6	3.55714
12.61	3.55483
12.62	3.55451
12.63	3.55582
12.64	3.55089
12.65	3.55319
12.66	3.55516
12.67	3.55385
12.68	3.55319
12.69	3.55747
12.7	3.55253
12.71	3.55483
12.72	3.55483
12.73	3.5499
12.74	3.55286
12.75	3.54957
12.76	3.54858
12.77	3.55286
12.78	3.55714
12.79	3.55483
12.8	3.55187
12.81	3.54793
12.82	3.54661
12.83	3.55253
12.84	3.55483
12.85	3.55187
12.86	3.54628
12.87	3.54595
12.88	3.54727
12.89	3.54661
12.9	3.54628
12.91	3.54826
12.92	3.55122
12.93	3.54924
12.94	3.54661
12.95	3.54464
12.96	3.55023
12.97	3.54694
12.98	3.54201
12.99	3.54858
13	3.54727
13.01	3.54266
13.02	3.54201
13.03	3.54431
13.04	3.54694
13.05	3.54003
13.06	3.53872
13.07	3.54398
13.08	3.54497
13.09	3.54299
13.1	3.54266
13.11	3.54562
13.12	3.54431
13.13	3.54464
13.14	3.54562
13.15	3.54299
13.16	3.54464
13.17	3.54332
13.18	3.54464
13.19	3.54266
13.2	3.54102
13.21	3.54135
13.22	3.54595
13.23	3.54628
13.24	3.54727
13.25	3.54102
13.26	3.54233
13.27	3.54003
13.28	3.53707
13.29	3.54332
13.3	3.54628
13.31	3.54398
13.32	3.53773
13.33	3.5397
13.34	3.54168
13.35	3.54036
13.36	3.54464
13.37	3.54233
13.38	3.5476
13.39	3.54891
13.4	3.54924
13.41	3.54661
13.42	3.54003
13.43	3.54497
13.44	3.54201
13.45	3.54529
13.46	3.54168
13.47	3.54562
13.48	3.54266
13.49	3.54661
13.5	3.54891
13.51	3.5476
13.52	3.54233
13.53	3.53773
13.54	3.54332
13.55	3.53773
13.56	3.54299
13.57	3.53904
13.58	3.53773
13.59	3.54102
13.6	3.53839
13.61	3.53839
13.62	3.53674
13.63	3.54003
13.64	3.5397
13.65	3.54332
13.66	3.53872
13.67	3.5374
13.68	3.53839
13.69	3.53773
13.7	3.53543
13.71	3.53279
13.72	3.53839
13.73	3.54069
13.74	3.53937
