"BIO-KINE ASCII FILE"
"_COMMENT"	"MOS-500 Spectrometer"
"_COMMENT"	"Kinetics measurement"
"_COMMENT"	"Y Unit : Volt,  X Unit : s"
"_COMMENT"	"Excitation wavelength : 380 nm"
"_COMMENT"	"Fentes bandwidth =  1 nm"
"_COMMENT"	"HV= 1000V"
"_COMMENT"	"Timebase  1 =  .01 s   5001 pts"
"_SFM"	"SFM-400 /S  Advanced mode"
"_SFM"	"Ratio : S1: 2.5, S2: 0, S3: 0, S4: 1"
"_SFM"	"Content : S1: , S2: , S3: , S4:"
"_SFM"	"Concentration : S1: , S2: , S3: , S4:"
"_SFM"	"Total volume : 209 µl  Flow : 3.5 mL/s"
"_SFM"	"Acquisition start :  10 ms before stop"
"_SFM"	"cuve=FC-15, s1=10 ml , s2=10 ml , s3=10 ml , s4=1.9 ml"
"_UNITX"	"s"
"_UNITY"	"Volt"
"_DELTAX"	0
"_DATA"
1e-300	4.52493
0.01	4.46276
0.02	4.44565
0.03	4.55289
0.04	4.62132
0.05	4.61408
0.06	4.66408
0.07	4.70586
0.08	4.70257
0.09	4.70882
0.1	4.76836
0.11	4.74994
0.12	4.73908
0.13	4.75027
0.14	4.76244
0.15	4.74961
0.16	4.74007
0.17	4.76375
0.18	4.78744
0.19	4.7779
0.2	4.71967
0.21	4.75323
0.22	4.75981
0.23	4.72757
0.24	4.74961
0.25	4.75718
0.26	4.76014
0.27	4.77691
0.28	4.77099
0.29	4.75093
0.3	4.77724
0.31	4.76737
0.32	4.77198
0.33	4.72
0.34	4.77593
0.35	4.78283
0.36	4.76343
0.37	4.72889
0.38	4.76244
0.39	4.73415
0.4	4.73152
0.41	4.7302
0.42	4.73612
0.43	4.74171
0.44	4.71375
0.45	4.74533
0.46	4.75158
0.47	4.74468
0.48	4.77658
0.49	4.75849
0.5	4.71638
0.51	4.73744
0.52	4.75882
0.53	4.75981
0.54	4.78744
0.55	4.73875
0.56	4.71671
0.57	4.75158
0.58	4.6802
0.59	4.70191
0.6	4.72
0.61	4.74796
0.62	4.70191
0.63	4.70158
0.64	4.73974
0.65	4.73645
0.66	4.76277
0.67	4.72954
0.68	4.71342
0.69	4.71211
0.7	4.7325
0.71	4.74599
0.72	4.71342
0.73	4.74171
0.74	4.69369
0.75	4.73546
0.76	4.74698
0.77	4.74402
0.78	4.71935
0.79	4.71836
0.8	4.71375
0.81	4.67198
0.82	4.68316
0.83	4.72889
0.84	4.7154
0.85	4.70421
0.86	4.6654
0.87	4.68941
0.88	4.70882
0.89	4.6598
0.9	4.66441
0.91	4.68974
0.92	4.7029
0.93	4.72033
0.94	4.70849
0.95	4.72921
0.96	4.72198
0.97	4.68086
0.98	4.6825
0.99	4.65158
1	4.68349
1.01	4.72724
1.02	4.68941
1.03	4.68349
1.04	4.67888
1.05	4.70092
1.06	4.66309
1.07	4.65783
1.08	4.68941
1.09	4.7154
1.1	4.70981
1.11	4.67362
1.12	4.68777
1.13	4.66967
1.14	4.69434
1.15	4.67494
1.16	4.66934
1.17	4.69599
1.18	4.68579
1.19	4.67592
1.2	4.69566
1.21	4.66737
1.22	4.63382
1.23	4.67066
1.24	4.65948
1.25	4.6723
1.26	4.67033
1.27	4.67
1.28	4.68217
1.29	4.67099
1.3	4.68974
1.31	4.63053
1.32	4.62066
1.33	4.6779
1.34	4.62197
1.35	4.62197
1.36	4.63447
1.37	4.60257
1.38	4.65191
1.39	4.645
1.4	4.61836
1.41	4.66671
1.42	4.66112
1.43	4.63217
1.44	4.63415
1.45	4.645
1.46	4.68678
1.47	4.67
1.48	4.63776
1.49	4.64171
1.5	4.66671
1.51	4.62099
1.52	4.62395
1.53	4.66441
1.54	4.60783
1.55	4.66967
1.56	4.67461
1.57	4.63875
1.58	4.64434
1.59	4.64467
1.6	4.60816
1.61	4.58941
1.62	4.60289
1.63	4.63908
1.64	4.62164
1.65	4.60355
1.66	4.66112
1.67	4.66046
1.68	4.6325
1.69	4.62888
1.7	4.62362
1.71	4.58085
1.72	4.5825
1.73	4.60947
1.74	4.56638
1.75	4.60421
1.76	4.61243
1.77	4.60849
1.78	4.63053
1.79	4.5802
1.8	4.59072
1.81	4.60585
1.82	4.61408
1.83	4.61638
1.84	4.61803
1.85	4.60092
1.86	4.63513
1.87	4.58743
1.88	4.57756
1.89	4.59763
1.9	4.57987
1.91	4.63809
1.92	4.56835
1.93	4.61243
1.94	4.59566
1.95	4.57033
1.96	4.54072
1.97	4.57559
1.98	4.60585
1.99	4.56309
2	4.58447
2.01	4.59763
2.02	4.58414
2.03	4.58842
2.04	4.56506
2.05	4.60355
2.06	4.60191
2.07	4.60191
2.08	4.56967
2.09	4.52691
2.1	4.57
2.11	4.58085
2.12	4.59566
2.13	4.55618
2.14	4.55454
2.15	4.55849
2.16	4.61441
2.17	4.57066
2.18	4.58118
2.19	4.55881
2.2	4.56276
2.21	4.56638
2.22	4.57197
2.23	4.5746
2.24	4.58612
2.25	4.5496
2.26	4.54763
2.27	4.52362
2.28	4.57
2.29	4.56671
2.3	4.53414
2.31	4.55256
2.32	4.54631
2.33	4.58217
2.34	4.55881
2.35	4.52658
2.36	4.57362
2.37	4.54335
2.38	4.57033
2.39	4.54467
2.4	4.56276
2.41	4.56901
2.42	4.53348
2.43	4.57263
2.44	4.5825
2.45	4.59303
2.46	4.51868
2.47	4.54171
2.48	4.51506
2.49	4.57066
2.5	4.55454
2.51	4.54302
2.52	4.49927
2.53	4.52888
2.54	4.5473
2.55	4.54039
2.56	4.54072
2.57	4.54072
2.58	4.5746
2.59	4.51835
2.6	4.52625
2.61	4.54138
2.62	4.56868
2.63	4.53941
2.64	4.56868
2.65	4.52921
2.66	4.52098
2.67	4.56967
2.68	4.51177
2.69	4.5427
2.7	4.55256
2.71	4.53283
2.72	4.51704
2.73	4.52987
2.74	4.49763
2.75	4.48546
2.76	4.51539
2.77	4.49138
2.78	4.48151
2.79	4.52756
2.8	4.50618
2.81	4.54631
2.82	4.50355
2.83	4.49598
2.84	4.50684
2.85	4.5098
2.86	4.50421
2.87	4.47789
2.88	4.4825
2.89	4.50914
2.9	4.47
2.91	4.5144
2.92	4.52723
2.93	4.48282
2.94	4.5019
2.95	4.4519
2.96	4.50618
2.97	4.4825
2.98	4.47493
2.99	4.51704
3	4.50717
3.01	4.52362
3.02	4.48513
3.03	4.46671
3.04	4.48546
3.05	4.51375
3.06	4.53316
3.07	4.5325
3.08	4.52065
3.09	4.51079
3.1	4.51079
3.11	4.50223
3.12	4.53809
3.13	4.49171
3.14	4.47263
3.15	4.4371
3.16	4.47592
3.17	4.50717
3.18	4.50026
3.19	4.47263
3.2	4.46835
3.21	4.45059
3.22	4.47921
3.23	4.48085
3.24	4.4496
3.25	4.41638
3.26	4.49631
3.27	4.46375
3.28	4.48875
3.29	4.49861
3.3	4.46276
3.31	4.47986
3.32	4.5223
3.33	4.50947
3.34	4.47131
3.35	4.48513
3.36	4.43578
3.37	4.47986
3.38	4.46243
3.39	4.44269
3.4	4.44532
3.41	4.45848
3.42	4.44269
3.43	4.46703
3.44	4.46835
3.45	4.46967
3.46	4.46078
3.47	4.45651
3.48	4.41769
3.49	4.45585
3.5	4.47888
3.51	4.46736
3.52	4.47361
3.53	4.46901
3.54	4.48875
3.55	4.46111
3.56	4.44467
3.57	4.45486
3.58	4.44499
3.59	4.44236
3.6	4.47131
3.61	4.46177
3.62	4.49204
3.63	4.44072
3.64	4.4348
3.65	4.43743
3.66	4.4519
3.67	4.43447
3.68	4.48644
3.69	4.46375
3.7	4.46736
3.71	4.42756
3.72	4.42756
3.73	4.43644
3.74	4.44927
3.75	4.4371
3.76	4.47559
3.77	4.4723
3.78	4.43348
3.79	4.45256
3.8	4.42888
3.81	4.44993
3.82	4.43644
3.83	4.4496
3.84	4.43184
3.85	4.41144
3.86	4.4575
3.87	4.43809
3.88	4.41769
3.89	4.44368
3.9	4.40749
3.91	4.40157
3.92	4.41835
3.93	4.41013
3.94	4.41309
3.95	4.45914
3.96	4.41638
3.97	4.41539
3.98	4.41078
3.99	4.41999
4	4.4575
4.01	4.41769
4.02	4.39664
4.03	4.38611
4.04	4.37197
4.05	4.47
4.06	4.42953
4.07	4.41309
4.08	4.42427
4.09	4.43052
4.1	4.41572
4.11	4.41144
4.12	4.42526
4.13	4.41769
4.14	4.39993
4.15	4.42493
4.16	4.42789
4.17	4.45157
4.18	4.44796
4.19	4.41473
4.2	4.3746
4.21	4.39368
4.22	4.43545
4.23	4.40157
4.24	4.40059
4.25	4.39368
4.26	4.42592
4.27	4.42888
4.28	4.43052
4.29	4.37723
4.3	4.36341
4.31	4.39072
4.32	4.43184
4.33	4.3996
4.34	4.3746
4.35	4.40453
4.36	4.43052
4.37	4.36802
4.38	4.36637
4.39	4.39039
4.4	4.37657
4.41	4.38447
4.42	4.39335
4.43	4.42328
4.44	4.40355
4.45	4.41078
4.46	4.35289
4.47	4.3769
4.48	4.40519
4.49	4.37822
4.5	4.35519
4.51	4.35651
4.52	4.35947
4.53	4.40684
4.54	4.40585
4.55	4.36769
4.56	4.36966
4.57	4.35453
4.58	4.36473
4.59	4.37493
4.6	4.4098
4.61	4.40651
4.62	4.40914
4.63	4.33216
4.64	4.34269
4.65	4.3894
4.66	4.36736
4.67	4.35453
4.68	4.38348
4.69	4.3746
4.7	4.40256
4.71	4.39203
4.72	4.42295
4.73	4.39302
4.74	4.3644
4.75	4.38381
4.76	4.41769
4.77	4.37328
4.78	4.36736
4.79	4.34104
4.8	4.37131
4.81	4.39203
4.82	4.40585
4.83	4.35651
4.84	4.3746
4.85	4.35354
4.86	4.38151
4.87	4.36506
4.88	4.37591
4.89	4.33743
4.9	4.36407
4.91	4.39631
4.92	4.36177
4.93	4.34664
4.94	4.34565
4.95	4.32591
4.96	4.33414
4.97	4.34993
4.98	4.37098
4.99	4.31539
5	4.30782
5.01	4.36901
5.02	4.35124
5.03	4.36933
5.04	4.37789
5.05	4.3394
5.06	4.32427
5.07	4.32756
5.08	4.38578
5.09	4.35716
5.1	4.34861
5.11	4.36539
5.12	4.35387
5.13	4.34137
5.14	4.32986
5.15	4.37032
5.16	4.3621
5.17	4.34762
5.18	4.3167
5.19	4.37558
5.2	4.35552
5.21	4.3746
5.22	4.32723
5.23	4.29104
5.24	4.31407
5.25	4.33315
5.26	4.32756
5.27	4.33775
5.28	4.32262
5.29	4.28381
5.3	4.33512
5.31	4.35914
5.32	4.38381
5.33	4.33907
5.34	4.32032
5.35	4.32196
5.36	4.33446
5.37	4.33052
5.38	4.37789
5.39	4.34894
5.4	4.35223
5.41	4.31835
5.42	4.34598
5.43	4.3269
5.44	4.32887
5.45	4.30486
5.46	4.33743
5.47	4.32262
5.48	4.35979
5.49	4.30716
5.5	4.30914
5.51	4.34697
5.52	4.32098
5.53	4.34466
5.54	4.37657
5.55	4.32657
5.56	4.32065
5.57	4.294
5.58	4.32328
5.59	4.30946
5.6	4.29038
5.61	4.35289
5.62	4.34762
5.63	4.30749
5.64	4.27723
5.65	4.31078
5.66	4.30486
5.67	4.35914
5.68	4.29499
5.69	4.31078
5.7	4.30387
5.71	4.28808
5.72	4.3246
5.73	4.30683
5.74	4.3121
5.75	4.32131
5.76	4.30552
5.77	4.29269
5.78	4.29466
5.79	4.3144
5.8	4.31835
5.81	4.28644
5.82	4.2917
5.83	4.32723
5.84	4.27756
5.85	4.29302
5.86	4.29663
5.87	4.30157
5.88	4.3065
5.89	4.29565
5.9	4.31242
5.91	4.28446
5.92	4.35552
5.93	4.29992
5.94	4.29335
5.95	4.34039
5.96	4.31999
5.97	4.30387
5.98	4.32591
5.99	4.32262
6	4.31966
6.01	4.31867
6.02	4.3519
6.03	4.31637
6.04	4.32854
6.05	4.2713
6.06	4.29038
6.07	4.32953
6.08	4.28249
6.09	4.26473
6.1	4.27525
6.11	4.30716
6.12	4.31374
6.13	4.33973
6.14	4.30157
6.15	4.28117
6.16	4.27262
6.17	4.29006
6.18	4.28611
6.19	4.27657
6.2	4.3292
6.21	4.28841
6.22	4.29269
6.23	4.29992
6.24	4.30223
6.25	4.29071
6.26	4.28413
6.27	4.30453
6.28	4.26308
6.29	4.21637
6.3	4.27953
6.31	4.27887
6.32	4.26571
6.33	4.30585
6.34	4.29335
6.35	4.27328
6.36	4.2588
6.37	4.29894
6.38	4.24696
6.39	4.3065
6.4	4.29433
6.41	4.25058
6.42	4.27821
6.43	4.32657
6.44	4.25979
6.45	4.27591
6.46	4.27361
6.47	4.30683
6.48	4.26538
6.49	4.26802
6.5	4.30256
6.51	4.24729
6.52	4.28052
6.53	4.2292
6.54	4.23051
6.55	4.21505
6.56	4.22492
6.57	4.28907
6.58	4.24532
6.59	4.28052
6.6	4.2417
6.61	4.2542
6.62	4.29236
6.63	4.25848
6.64	4.24926
6.65	4.27723
6.66	4.27854
6.67	4.27591
6.68	4.29729
6.69	4.28709
6.7	4.27394
6.71	4.28611
6.72	4.2713
6.73	4.27229
6.74	4.27427
6.75	4.28183
6.76	4.27986
6.77	4.24565
6.78	4.24663
6.79	4.25255
6.8	4.244
6.81	4.21736
6.82	4.23545
6.83	4.30453
6.84	4.3019
6.85	4.25519
6.86	4.25848
6.87	4.22887
6.88	4.26242
6.89	4.25288
6.9	4.26999
6.91	4.20913
6.92	4.2667
6.93	4.2996
6.94	4.27229
6.95	4.26407
6.96	4.22492
6.97	4.23216
6.98	4.27262
6.99	4.25782
7	4.24532
7.01	4.23907
7.02	4.21308
7.03	4.20255
7.04	4.22032
7.05	4.24894
7.06	4.21242
7.07	4.25058
7.08	4.23413
7.09	4.21867
7.1	4.22887
7.11	4.22591
7.12	4.25124
7.13	4.27295
7.14	4.25058
7.15	4.28183
7.16	4.24861
7.17	4.2542
7.18	4.27788
7.19	4.29367
7.2	4.27098
7.21	4.23216
7.22	4.2713
7.23	4.25979
7.24	4.28315
7.25	4.26341
7.26	4.22196
7.27	4.22558
7.28	4.2292
7.29	4.21407
7.3	4.2588
7.31	4.26078
7.32	4.2417
7.33	4.24894
7.34	4.26177
7.35	4.21637
7.36	4.2144
7.37	4.2588
7.38	4.26999
7.39	4.28282
7.4	4.24236
7.41	4.27624
7.42	4.22591
7.43	4.23051
7.44	4.26802
7.45	4.21012
7.46	4.26736
7.47	4.23841
7.48	4.20157
7.49	4.22558
7.5	4.24038
7.51	4.24894
7.52	4.21801
7.53	4.23973
7.54	4.22361
7.55	4.23644
7.56	4.23084
7.57	4.2167
7.58	4.22032
7.59	4.23973
7.6	4.22229
7.61	4.21275
7.62	4.25058
7.63	4.26209
7.64	4.21143
7.65	4.22722
7.66	4.244
7.67	4.2338
7.68	4.2417
7.69	4.27657
7.7	4.24598
7.71	4.22953
7.72	4.21341
7.73	4.19992
7.74	4.21472
7.75	4.26604
7.76	4.23479
7.77	4.20518
7.78	4.2315
7.79	4.21867
7.8	4.19334
7.81	4.18643
7.82	4.21736
7.83	4.18512
7.84	4.22394
7.85	4.23545
7.86	4.21867
7.87	4.18643
7.88	4.20617
7.89	4.24663
7.9	4.22394
7.91	4.25584
7.92	4.23282
7.93	4.18841
7.94	4.22229
7.95	4.20979
7.96	4.18018
7.97	4.23808
7.98	4.23676
7.99	4.17591
8	4.17262
8.01	4.20551
8.02	4.19334
8.03	4.20486
8.04	4.2338
8.05	4.19071
8.06	4.19828
8.07	4.23545
8.08	4.20979
8.09	4.1792
8.1	4.21143
8.11	4.2644
8.12	4.22097
8.13	4.17953
8.14	4.18413
8.15	4.20058
8.16	4.22361
8.17	4.22196
8.18	4.2338
8.19	4.20749
8.2	4.20453
8.21	4.1917
8.22	4.19104
8.23	4.20617
8.24	4.19038
8.25	4.17821
8.26	4.20157
8.27	4.2338
8.28	4.20782
8.29	4.22262
8.3	4.20749
8.31	4.18643
8.32	4.19104
8.33	4.1838
8.34	4.18874
8.35	4.21143
8.36	4.21143
8.37	4.21768
8.38	4.17657
8.39	4.21045
8.4	4.23709
8.41	4.17854
8.42	4.20321
8.43	4.18775
8.44	4.16505
8.45	4.194
8.46	4.20979
8.47	4.18314
8.48	4.1838
8.49	4.17459
8.5	4.20255
8.51	4.22163
8.52	4.18643
8.53	4.18709
8.54	4.20321
8.55	4.17295
8.56	4.14433
8.57	4.13874
8.58	4.15551
8.59	4.20518
8.6	4.21867
8.61	4.19597
8.62	4.22361
8.63	4.21867
8.64	4.20815
8.65	4.1963
8.66	4.18775
8.67	4.19992
8.68	4.21604
8.69	4.16834
8.7	4.19236
8.71	4.19499
8.72	4.15091
8.73	4.20617
8.74	4.19861
8.75	4.18051
8.76	4.18216
8.77	4.22558
8.78	4.19893
8.79	4.20617
8.8	4.18117
8.81	4.19696
8.82	4.21374
8.83	4.21472
8.84	4.16966
8.85	4.20617
8.86	4.1792
8.87	4.14795
8.88	4.17755
8.89	4.20157
8.9	4.1838
8.91	4.20091
8.92	4.18742
8.93	4.20058
8.94	4.17426
8.95	4.18183
8.96	4.18117
8.97	4.19301
8.98	4.18841
8.99	4.21143
9	4.21933
9.01	4.17591
9.02	4.18742
9.03	4.15518
9.04	4.14466
9.05	4.16308
9.06	4.18874
9.07	4.1861
9.08	4.20617
9.09	4.19104
9.1	4.18578
9.11	4.19466
9.12	4.20453
9.13	4.21867
9.14	4.16242
9.15	4.16834
9.16	4.16933
9.17	4.18413
9.18	4.16703
9.19	4.16143
9.2	4.18216
9.21	4.18282
9.22	4.13117
9.23	4.17426
9.24	4.16045
9.25	4.14334
9.26	4.12229
9.27	4.12623
9.28	4.16505
9.29	4.19597
9.3	4.16834
9.31	4.1667
9.32	4.15518
9.33	4.16735
9.34	4.1838
9.35	4.1588
9.36	4.18216
9.37	4.2042
9.38	4.18808
9.39	4.16703
9.4	4.1236
9.41	4.13117
9.42	4.12426
9.43	4.18939
9.44	4.13577
9.45	4.16209
9.46	4.17887
9.47	4.13314
9.48	4.13808
9.49	4.18512
9.5	4.20189
9.51	4.12689
9.52	4.16439
9.53	4.19038
9.54	4.16242
9.55	4.14005
9.56	4.15716
9.57	4.15222
9.58	4.18808
9.59	4.1713
9.6	4.14137
9.61	4.14926
9.62	4.1792
9.63	4.16505
9.64	4.16637
9.65	4.1315
9.66	4.13545
9.67	4.12558
9.68	4.13084
9.69	4.15781
9.7	4.16999
9.71	4.10551
9.72	4.11571
9.73	4.12656
9.74	4.16341
9.75	4.15946
9.76	4.15124
9.77	4.11867
9.78	4.15058
9.79	4.14268
9.8	4.19038
9.81	4.16176
9.82	4.18018
9.83	4.15156
9.84	4.17788
9.85	4.16012
9.86	4.15485
9.87	4.16966
9.88	4.15025
9.89	4.15124
9.9	4.14893
9.91	4.13084
9.92	4.15617
9.93	4.15683
9.94	4.15551
9.95	4.13216
9.96	4.14926
9.97	4.1611
9.98	4.14992
9.99	4.13906
10	4.16834
10.01	4.15025
10.02	4.12722
10.03	4.14202
10.04	4.18578
10.05	4.1565
10.06	4.15189
10.07	4.16012
10.08	4.17657
10.09	4.19663
10.1	4.17657
10.11	4.13051
10.12	4.16801
10.13	4.16867
10.14	4.13084
10.15	4.11768
10.16	4.15617
10.17	4.1009
10.18	4.19104
10.19	4.14268
10.2	4.16571
10.21	4.1315
10.22	4.10814
10.23	4.119
10.24	4.13972
10.25	4.16143
10.26	4.144
10.27	4.14729
10.28	4.15716
10.29	4.15847
10.3	4.12525
10.31	4.11209
10.32	4.1338
10.33	4.11406
10.34	4.14827
10.35	4.1542
10.36	4.15617
10.37	4.09531
10.38	4.11702
10.39	4.1463
10.4	4.14268
10.41	4.14005
10.42	4.13347
10.43	4.11966
10.44	4.10321
10.45	4.15321
10.46	4.13216
10.47	4.1486
10.48	4.14071
10.49	4.12558
10.5	4.1486
10.51	4.1292
10.52	4.13216
10.53	4.14367
10.54	4.14795
10.55	4.14663
10.56	4.1292
10.57	4.13906
10.58	4.11242
10.59	4.15288
10.6	4.14959
10.61	4.12887
10.62	4.1213
10.63	4.13347
10.64	4.16374
10.65	4.14663
10.66	4.1292
10.67	4.12196
10.68	4.10255
10.69	4.11966
10.7	4.13906
10.71	4.13281
10.72	4.13676
10.73	4.10189
10.74	4.12097
10.75	4.10814
10.76	4.12689
10.77	4.10913
10.78	4.12558
10.79	4.1463
10.8	4.10617
10.81	4.10288
10.82	4.12722
10.83	4.09762
10.84	4.12262
10.85	4.15025
10.86	4.12689
10.87	4.12656
10.88	4.13545
10.89	4.1292
10.9	4.11077
10.91	4.07656
10.92	4.09663
10.93	4.11735
10.94	4.12196
10.95	4.11044
10.96	4.12854
10.97	4.14137
10.98	4.12755
10.99	4.07952
11	4.15518
11.01	4.144
11.02	4.09992
11.03	4.15288
11.04	4.13512
11.05	4.12327
11.06	4.10551
11.07	4.09531
11.08	4.14795
11.09	4.10354
11.1	4.11834
11.11	4.11505
11.12	4.12689
11.13	4.14005
11.14	4.13281
11.15	4.12623
11.16	4.17821
11.17	4.09038
11.18	4.12163
11.19	4.12393
11.2	4.10419
11.21	4.09959
11.22	4.11604
11.23	4.12591
11.24	4.13906
11.25	4.12196
11.26	4.14531
11.27	4.1088
11.28	4.12064
11.29	4.11735
11.3	4.12327
11.31	4.12722
11.32	4.08873
11.33	4.09005
11.34	4.10288
11.35	4.10979
11.36	4.13051
11.37	4.13742
11.38	4.13643
11.39	4.10584
11.4	4.10946
11.41	4.10979
11.42	4.13084
11.43	4.14268
11.44	4.12952
11.45	4.11044
11.46	4.12097
11.47	4.1088
11.48	4.10419
11.49	4.10781
11.5	4.11571
11.51	4.13742
11.52	4.0986
11.53	4.14663
11.54	4.11242
11.55	4.09762
11.56	4.11406
11.57	4.1088
11.58	4.10979
11.59	4.11439
11.6	4.10354
11.61	4.13051
11.62	4.13545
11.63	4.1088
11.64	4.08281
11.65	4.09827
11.66	4.10156
11.67	4.12262
11.68	4.09169
11.69	4.1111
11.7	4.11571
11.71	4.11867
11.72	4.14268
11.73	4.12854
11.74	4.09794
11.75	4.11571
11.76	4.10354
11.77	4.10156
11.78	4.11077
11.79	4.10025
11.8	4.13347
11.81	4.10913
11.82	4.05814
11.83	4.09005
11.84	4.08709
11.85	4.07886
11.86	4.09794
11.87	4.09169
11.88	4.06505
11.89	4.09268
11.9	4.10189
11.91	4.12887
11.92	4.10123
11.93	4.11242
11.94	4.10189
11.95	4.06505
11.96	4.08117
11.97	4.11637
11.98	4.1009
11.99	4.12426
12	4.13314
12.01	4.10058
12.02	4.0986
12.03	4.08742
12.04	4.10058
12.05	4.13314
12.06	4.11044
12.07	4.11044
12.08	4.13051
12.09	4.09202
12.1	4.11801
12.11	4.08314
12.12	4.09169
12.13	4.1315
12.14	4.09104
12.15	4.14959
12.16	4.1236
12.17	4.10716
12.18	4.07623
12.19	4.11044
12.2	4.10288
12.21	4.13512
12.22	4.08479
12.23	4.07327
12.24	4.09104
12.25	4.11143
12.26	4.08446
12.27	4.10321
12.28	4.06932
12.29	4.10913
12.3	4.12952
12.31	4.07558
12.32	4.09005
12.33	4.05715
12.34	4.09071
12.35	4.1065
12.36	4.10683
12.37	4.12459
12.38	4.0986
12.39	4.06242
12.4	4.1065
12.41	4.08906
12.42	4.11406
12.43	4.09038
12.44	4.05979
12.45	4.06077
12.46	4.10156
12.47	4.09071
12.48	4.09794
12.49	4.12854
12.5	4.08314
12.51	4.10748
12.52	4.08544
12.53	4.06439
12.54	4.07919
12.55	4.12426
12.56	4.13216
12.57	4.11669
12.58	4.12064
12.59	4.12492
12.6	4.0986
12.61	4.12097
12.62	4.09235
12.63	4.06932
12.64	4.07492
12.65	4.11341
12.66	4.07985
12.67	4.10913
12.68	4.09992
12.69	4.05979
12.7	4.06307
12.71	4.10781
12.72	4.0736
12.73	4.11308
12.74	4.07459
12.75	4.10748
12.76	4.08051
12.77	4.06604
12.78	4.0565
12.79	4.07558
12.8	4.04334
12.81	4.04268
12.82	4.05847
12.83	4.04893
12.84	4.09169
12.85	4.0838
12.86	4.11472
12.87	4.04465
12.88	4.05781
12.89	4.07229
12.9	4.1111
12.91	4.08018
12.92	4.044
12.93	4.069
12.94	4.06538
12.95	4.10748
12.96	4.10156
12.97	4.06275
12.98	4.09202
12.99	4.04696
13	4.07623
13.01	4.10025
13.02	4.0713
13.03	4.06669
13.04	4.05419
13.05	4.05748
13.06	4.06932
13.07	4.1088
13.08	4.09762
13.09	4.14071
13.1	4.11637
13.11	4.10288
13.12	4.11637
13.13	4.09367
13.14	4.11275
13.15	4.09202
13.16	4.08215
13.17	4.07459
13.18	4.06406
13.19	4.13248
13.2	4.10354
13.21	4.11308
13.22	4.13018
13.23	4.09696
13.24	4.0713
13.25	4.09202
13.26	4.06867
13.27	4.07985
13.28	4.03643
13.29	4.06669
13.3	4.0361
13.31	4.05584
13.32	4.07886
13.33	4.05682
13.34	4.08709
13.35	4.06702
13.36	4.03676
13.37	4.02788
13.38	4.07919
13.39	4.09433
13.4	4.09498
13.41	4.0963
13.42	4.07525
13.43	4.09268
13.44	4.06307
13.45	4.09597
13.46	4.08018
13.47	4.08676
13.48	4.09137
13.49	4.09531
13.5	4.10419
13.51	4.06998
13.52	4.08906
13.53	4.1236
13.54	4.09367
13.55	4.08511
13.56	4.11077
13.57	4.06505
13.58	4.08742
13.59	4.08544
13.6	4.07261
13.61	4.06867
13.62	4.05781
13.63	4.08183
13.64	4.11373
13.65	4.05946
13.66	4.08183
13.67	4.10156
13.68	4.08084
13.69	4.04071
13.7	4.04926
13.71	4.08643
13.72	4.07492
13.73	4.06768
13.74	4.05288
13.75	4.0838
13.76	4.08183
13.77	4.08084
