"BIO-KINE ASCII FILE"
"_COMMENT"	"MOS-500 Spectrometer"
"_COMMENT"	"Kinetics measurement"
"_COMMENT"	"Y Unit : Volt,  X Unit : s"
"_COMMENT"	"Excitation wavelength : 380 nm"
"_COMMENT"	"Fentes bandwidth =  1 nm"
"_COMMENT"	"HV= 1000V"
"_COMMENT"	"Timebase  1 =  .01 s   3001 pts"
"_SFM"	"SFM-400 /S  Advanced mode"
"_SFM"	"Ratio : S1: 2.5, S2: 0, S3: 0, S4: 1"
"_SFM"	"Content : S1: , S2: , S3: , S4:"
"_SFM"	"Concentration : S1: , S2: , S3: , S4:"
"_SFM"	"Total volume : 209 µl  Flow : 3.5 mL/s"
"_SFM"	"Acquisition start :  10 ms before stop"
"_SFM"	"cuve=FC-15, s1=10 ml , s2=10 ml , s3=10 ml , s4=1.9 ml"
"_UNITX"	"s"
"_UNITY"	"Volt"
"_DELTAX"	0
"_DATA"
1e-300	2.665
0.01	2.60316
0.02	2.61829
0.03	2.65382
0.04	2.6729
0.05	2.66402
0.06	2.71073
0.07	2.73573
0.08	2.77553
0.09	2.78474
0.1	2.79593
0.11	2.79363
0.12	2.78935
0.13	2.81797
0.14	2.76501
0.15	2.75908
0.16	2.7956
0.17	2.83442
0.18	2.80645
0.19	2.83606
0.2	2.83409
0.21	2.83047
0.22	2.81139
0.23	2.78836
0.24	2.79856
0.25	2.8433
0.26	2.81928
0.27	2.77751
0.28	2.81435
0.29	2.82455
0.3	2.83507
0.31	2.8354
0.32	2.81205
0.33	2.81007
0.34	2.81665
0.35	2.86994
0.36	2.84823
0.37	2.83836
0.38	2.80744
0.39	2.81863
0.4	2.82751
0.41	2.83014
0.42	2.82356
0.43	2.83738
0.44	2.83639
0.45	2.80251
0.46	2.81731
0.47	2.80284
0.48	2.80349
0.49	2.84165
0.5	2.83836
0.51	2.83376
0.52	2.83409
0.53	2.79297
0.54	2.82224
0.55	2.81994
0.56	2.82126
0.57	2.81599
0.58	2.82159
0.59	2.86994
0.6	2.81632
0.61	2.79724
0.62	2.80678
0.63	2.81764
0.64	2.81534
0.65	2.80448
0.66	2.80744
0.67	2.82652
0.68	2.86008
0.69	2.83277
0.7	2.81994
0.71	2.83836
0.72	2.82323
0.73	2.83869
0.74	2.83672
0.75	2.82356
0.76	2.84231
0.77	2.82389
0.78	2.82784
0.79	2.80086
0.8	2.8285
0.81	2.81961
0.82	2.82126
0.83	2.84593
0.84	2.83442
0.85	2.78902
0.86	2.82027
0.87	2.85646
0.88	2.83771
0.89	2.84034
0.9	2.81797
0.91	2.82751
0.92	2.81764
0.93	2.8104
0.94	2.81106
0.95	2.82356
0.96	2.82159
0.97	2.8433
0.98	2.80053
0.99	2.83409
1	2.8308
1.01	2.84198
1.02	2.79988
1.03	2.79593
1.04	2.82751
1.05	2.83211
1.06	2.82619
1.07	2.80448
1.08	2.81205
1.09	2.81007
1.1	2.82422
1.11	2.83442
1.12	2.82619
1.13	2.82422
1.14	2.82126
1.15	2.81961
1.16	2.8229
1.17	2.80481
1.18	2.81764
1.19	2.8183
1.2	2.81534
1.21	2.79659
1.22	2.78573
1.23	2.84461
1.24	2.80744
1.25	2.82455
1.26	2.80448
1.27	2.79692
1.28	2.7956
1.29	2.82224
1.3	2.80382
1.31	2.82817
1.32	2.8308
1.33	2.80448
1.34	2.81764
1.35	2.79724
1.36	2.82488
1.37	2.8058
1.38	2.82389
1.39	2.80711
1.4	2.82027
1.41	2.8229
1.42	2.82389
1.43	2.80481
1.44	2.77389
1.45	2.78803
1.46	2.8058
1.47	2.80678
1.48	2.80645
1.49	2.78935
1.5	2.79363
1.51	2.81632
1.52	2.79461
1.53	2.79922
1.54	2.80218
1.55	2.78869
1.56	2.79988
1.57	2.78836
1.58	2.79527
1.59	2.80152
1.6	2.82323
1.61	2.79198
1.62	2.79428
1.63	2.7729
1.64	2.77751
1.65	2.80119
1.66	2.78343
1.67	2.78441
1.68	2.78507
1.69	2.83376
1.7	2.79626
1.71	2.81106
1.72	2.82652
1.73	2.78343
1.74	2.79165
1.75	2.81402
1.76	2.79823
1.77	2.78047
1.78	2.82257
1.79	2.79461
1.8	2.79724
1.81	2.79461
1.82	2.77685
1.83	2.79363
1.84	2.78672
1.85	2.80415
1.86	2.7752
1.87	2.79132
1.88	2.78869
1.89	2.78507
1.9	2.79198
1.91	2.80284
1.92	2.77751
1.93	2.76007
1.94	2.7877
1.95	2.80876
1.96	2.79757
1.97	2.80547
1.98	2.79823
1.99	2.80448
2	2.78277
2.01	2.79593
2.02	2.78211
2.03	2.8058
2.04	2.80415
2.05	2.81797
2.06	2.79856
2.07	2.77981
2.08	2.80415
2.09	2.79692
2.1	2.79066
2.11	2.78606
2.12	2.7706
2.13	2.7808
2.14	2.7479
2.15	2.7877
2.16	2.8206
2.17	2.80876
2.18	2.79165
2.19	2.78507
2.2	2.80777
2.21	2.80415
2.22	2.79626
2.23	2.79823
2.24	2.79527
2.25	2.77422
2.26	2.78836
2.27	2.80711
2.28	2.81007
2.29	2.79955
2.3	2.76205
2.31	2.7683
2.32	2.77356
2.33	2.78441
2.34	2.78935
2.35	2.78968
2.36	2.80876
2.37	2.83211
2.38	2.81797
2.39	2.78113
2.4	2.7604
2.41	2.7877
2.42	2.79066
2.43	2.78178
2.44	2.77323
2.45	2.79626
2.46	2.77915
2.47	2.78836
2.48	2.80909
2.49	2.80349
2.5	2.76369
2.51	2.78606
2.52	2.80119
2.53	2.7752
2.54	2.78113
2.55	2.76139
2.56	2.79428
2.57	2.77093
2.58	2.76303
2.59	2.7956
2.6	2.77816
2.61	2.80119
2.62	2.77455
2.63	2.76994
2.64	2.77093
2.65	2.76566
2.66	2.77619
2.67	2.79428
2.68	2.78869
2.69	2.76172
2.7	2.76862
2.71	2.77224
2.72	2.80185
2.73	2.79264
2.74	2.77652
2.75	2.81928
2.76	2.77093
2.77	2.78409
2.78	2.79165
2.79	2.78047
2.8	2.76534
2.81	2.76566
2.82	2.77027
2.83	2.78409
2.84	2.77981
2.85	2.78343
2.86	2.80053
2.87	2.80843
2.88	2.75152
2.89	2.76895
2.9	2.81205
2.91	2.78935
2.92	2.8058
2.93	2.79527
2.94	2.78211
2.95	2.77784
2.96	2.77126
2.97	2.76665
2.98	2.78705
2.99	2.76073
3	2.7683
3.01	2.80251
3.02	2.80547
3.03	2.78902
3.04	2.80448
3.05	2.77652
3.06	2.75119
3.07	2.77487
3.08	2.76139
3.09	2.76106
3.1	2.7729
3.11	2.75777
3.12	2.79264
3.13	2.78113
3.14	2.80942
3.15	2.80942
3.16	2.75843
3.17	2.78968
3.18	2.78935
3.19	2.79955
3.2	2.77159
3.21	2.77652
3.22	2.80711
3.23	2.79922
3.24	2.77027
3.25	2.78244
3.26	2.78441
3.27	2.75283
3.28	2.76303
3.29	2.79659
3.3	2.78639
3.31	2.77685
3.32	2.76336
3.33	2.78211
3.34	2.78211
3.35	2.75612
3.36	2.78343
3.37	2.7627
3.38	2.77915
3.39	2.7729
3.4	2.79593
3.41	2.7854
3.42	2.76632
3.43	2.76402
3.44	2.74955
3.45	2.75908
3.46	2.78705
3.47	2.77915
3.48	2.79363
3.49	2.76534
3.5	2.76862
3.51	2.75744
3.52	2.72652
3.53	2.78606
3.54	2.75316
3.55	2.78738
3.56	2.76402
3.57	2.77356
3.58	2.78178
3.59	2.77389
3.6	2.77257
3.61	2.76599
3.62	2.74955
3.63	2.76106
3.64	2.76764
3.65	2.7627
3.66	2.77882
3.67	2.79066
3.68	2.77323
3.69	2.79757
3.7	2.76468
3.71	2.73704
3.72	2.76534
3.73	2.75876
3.74	2.75645
3.75	2.78047
3.76	2.76435
3.77	2.77356
3.78	2.78672
3.79	2.77093
3.8	2.75645
3.81	2.80185
3.82	2.74461
3.83	2.76895
3.84	2.77586
3.85	2.77027
3.86	2.73376
3.87	2.74593
3.88	2.76764
3.89	2.76501
3.9	2.74889
3.91	2.7808
3.92	2.76435
3.93	2.76303
3.94	2.76698
3.95	2.78639
3.96	2.77849
3.97	2.72783
3.98	2.78145
3.99	2.77422
4	2.77882
4.01	2.77652
4.02	2.7502
4.03	2.75053
4.04	2.76106
4.05	2.77882
4.06	2.75974
4.07	2.76106
4.08	2.7752
4.09	2.74987
4.1	2.72981
4.11	2.78014
4.12	2.78869
4.13	2.80415
4.14	2.75645
4.15	2.7706
4.16	2.77619
4.17	2.75283
4.18	2.76336
4.19	2.78803
4.2	2.7683
4.21	2.77389
4.22	2.76665
4.23	2.78343
4.24	2.77882
4.25	2.76731
4.26	2.74231
4.27	2.76303
4.28	2.75777
4.29	2.78573
4.3	2.76566
4.31	2.76862
4.32	2.73376
4.33	2.75876
4.34	2.75678
4.35	2.74691
4.36	2.75283
4.37	2.75744
4.38	2.76435
4.39	2.78803
4.4	2.76205
4.41	2.74658
4.42	2.76501
4.43	2.75086
4.44	2.72915
4.45	2.75251
4.46	2.74691
4.47	2.75415
4.48	2.75218
4.49	2.75283
4.5	2.75974
4.51	2.77882
4.52	2.77849
4.53	2.77849
4.54	2.7752
4.55	2.74889
4.56	2.74165
4.57	2.76961
4.58	2.80514
4.59	2.75481
4.6	2.76336
4.61	2.78968
4.62	2.76435
4.63	2.75185
4.64	2.76764
4.65	2.75251
4.66	2.74001
4.67	2.7706
4.68	2.75974
4.69	2.76599
4.7	2.77553
4.71	2.74132
4.72	2.76106
4.73	2.74494
4.74	2.77126
4.75	2.77126
4.76	2.75876
4.77	2.7558
4.78	2.76632
4.79	2.75481
4.8	2.78047
4.81	2.77191
4.82	2.76435
4.83	2.75777
4.84	2.73968
4.85	2.7081
4.86	2.7831
4.87	2.78573
4.88	2.76303
4.89	2.7729
4.9	2.74922
4.91	2.77685
4.92	2.77323
4.93	2.77191
4.94	2.77816
4.95	2.76402
4.96	2.73244
4.97	2.7604
4.98	2.74099
4.99	2.76994
5	2.76402
5.01	2.78474
5.02	2.77981
5.03	2.76435
5.04	2.75744
5.05	2.78507
5.06	2.78178
5.07	2.77027
5.08	2.79198
5.09	2.78869
5.1	2.76599
5.11	2.75218
5.12	2.79428
5.13	2.77586
5.14	2.76698
5.15	2.75152
5.16	2.77093
5.17	2.77981
5.18	2.72586
5.19	2.75711
5.2	2.75218
5.21	2.74198
5.22	2.74231
5.23	2.7627
5.24	2.74329
5.25	2.73902
5.26	2.7752
5.27	2.73178
5.28	2.77849
5.29	2.75448
5.3	2.7627
5.31	2.74395
5.32	2.75119
5.33	2.74264
5.34	2.76797
5.35	2.7479
5.36	2.74198
5.37	2.75645
5.38	2.72948
5.39	2.7604
5.4	2.75908
5.41	2.74297
5.42	2.76369
5.43	2.74724
5.44	2.71237
5.45	2.73014
5.46	2.75547
5.47	2.74527
5.48	2.75876
5.49	2.74856
5.5	2.78211
5.51	2.76205
5.52	2.76731
5.53	2.76895
5.54	2.74297
5.55	2.77487
5.56	2.76369
5.57	2.73704
5.58	2.7581
5.59	2.74856
5.6	2.75119
5.61	2.75908
5.62	2.78244
5.63	2.77784
5.64	2.75086
5.65	2.77487
5.66	2.75514
5.67	2.7683
5.68	2.77553
5.69	2.76205
5.7	2.76961
5.71	2.76566
5.72	2.74724
5.73	2.7377
5.74	2.69856
5.75	2.73441
5.76	2.7627
5.77	2.7502
5.78	2.73902
5.79	2.75744
5.8	2.74198
5.81	2.75711
5.82	2.76106
5.83	2.75152
5.84	2.73902
5.85	2.76106
5.86	2.78047
5.87	2.7831
5.88	2.72652
5.89	2.76961
5.9	2.80119
5.91	2.76961
5.92	2.73376
5.93	2.74329
5.94	2.74757
5.95	2.74132
5.96	2.74691
5.97	2.72882
5.98	2.74461
5.99	2.74428
6	2.74099
6.01	2.73902
6.02	2.7354
6.03	2.72915
6.04	2.75053
6.05	2.76106
6.06	2.77586
6.07	2.73376
6.08	2.75612
6.09	2.7877
6.1	2.77882
6.11	2.73112
6.12	2.74593
6.13	2.74626
6.14	2.71632
6.15	2.75251
6.16	2.74724
6.17	2.76665
6.18	2.75777
6.19	2.73244
6.2	2.75185
6.21	2.75185
6.22	2.75481
6.23	2.72224
6.24	2.76566
6.25	2.77323
6.26	2.76073
6.27	2.74626
6.28	2.75843
6.29	2.74198
6.3	2.77323
6.31	2.74297
6.32	2.73573
6.33	2.75218
6.34	2.73639
6.35	2.74889
6.36	2.75316
6.37	2.75251
6.38	2.75514
6.39	2.71994
6.4	2.73902
6.41	2.72816
6.42	2.75119
6.43	2.73047
6.44	2.75481
6.45	2.76928
6.46	2.71764
6.47	2.75185
6.48	2.76303
6.49	2.73047
6.5	2.75448
6.51	2.76895
6.52	2.74066
6.53	2.7229
6.54	2.73376
6.55	2.77784
6.56	2.77816
6.57	2.78803
6.58	2.76797
6.59	2.77323
6.6	2.75612
6.61	2.72915
6.62	2.75119
6.63	2.73902
6.64	2.71961
6.65	2.73639
6.66	2.73474
6.67	2.71994
6.68	2.74856
6.69	2.74165
6.7	2.72948
6.71	2.74001
6.72	2.7502
6.73	2.74527
6.74	2.72586
6.75	2.76402
6.76	2.77487
6.77	2.73869
6.78	2.71599
6.79	2.73869
6.8	2.72158
6.81	2.76237
6.82	2.76139
6.83	2.71665
6.84	2.7331
6.85	2.73935
6.86	2.74757
6.87	2.76961
6.88	2.76435
6.89	2.74889
6.9	2.73343
6.91	2.74066
6.92	2.72915
6.93	2.71073
6.94	2.73178
6.95	2.76928
6.96	2.79001
6.97	2.72849
6.98	2.72191
6.99	2.74362
7	2.74823
7.01	2.76205
7.02	2.76994
7.03	2.77784
7.04	2.74033
7.05	2.75645
7.06	2.74362
7.07	2.70875
7.08	2.71402
7.09	2.75612
7.1	2.75086
7.11	2.70086
7.12	2.70316
7.13	2.76073
7.14	2.74955
7.15	2.72783
7.16	2.72191
7.17	2.74724
7.18	2.72981
7.19	2.73474
7.2	2.75152
7.21	2.73869
7.22	2.70481
7.23	2.74757
7.24	2.72915
7.25	2.73112
7.26	2.75908
7.27	2.75382
7.28	2.73672
7.29	2.72224
7.3	2.72356
7.31	2.74527
7.32	2.75448
7.33	2.76007
7.34	2.73343
7.35	2.72422
7.36	2.72849
7.37	2.76862
7.38	2.74132
7.39	2.7331
7.4	2.73704
7.41	2.75053
7.42	2.7331
7.43	2.73968
7.44	2.75711
7.45	2.76632
7.46	2.75053
7.47	2.7002
7.48	2.7206
7.49	2.73145
7.5	2.74066
7.51	2.72816
7.52	2.73441
7.53	2.75316
7.54	2.73606
7.55	2.70908
7.56	2.71139
7.57	2.7581
7.58	2.73507
7.59	2.74362
7.6	2.7479
7.61	2.74428
7.62	2.74856
7.63	2.73869
7.64	2.72158
7.65	2.75382
7.66	2.73507
7.67	2.74724
7.68	2.75843
7.69	2.72619
7.7	2.7252
7.71	2.72389
7.72	2.75908
7.73	2.72981
7.74	2.74593
7.75	2.75711
7.76	2.7479
7.77	2.73606
7.78	2.73014
7.79	2.70579
7.8	2.71533
7.81	2.73343
7.82	2.74527
7.83	2.74461
7.84	2.71566
7.85	2.7275
7.86	2.72356
7.87	2.71928
7.88	2.71862
7.89	2.74099
7.9	2.71533
7.91	2.72356
7.92	2.75251
7.93	2.75119
7.94	2.7456
7.95	2.76468
7.96	2.7354
7.97	2.72718
7.98	2.70645
7.99	2.72882
8	2.72027
8.01	2.72652
8.02	2.75876
8.03	2.72191
8.04	2.73573
8.05	2.74494
8.06	2.74823
8.07	2.72882
8.08	2.73803
8.09	2.76534
8.1	2.7025
8.11	2.72652
8.12	2.75382
8.13	2.73836
8.14	2.73737
8.15	2.74099
8.16	2.73803
8.17	2.73935
8.18	2.74231
8.19	2.77356
8.2	2.75941
8.21	2.74823
8.22	2.72553
8.23	2.71402
8.24	2.76205
8.25	2.72718
8.26	2.7081
8.27	2.70382
8.28	2.70119
8.29	2.71073
8.3	2.70612
8.31	2.72224
8.32	2.76073
8.33	2.73704
8.34	2.71533
8.35	2.72718
8.36	2.71468
8.37	2.71731
8.38	2.7377
8.39	2.72882
8.4	2.72783
8.41	2.72454
8.42	2.715
8.43	2.72849
8.44	2.75119
8.45	2.74165
8.46	2.74395
8.47	2.75876
8.48	2.74329
8.49	2.73803
8.5	2.71237
8.51	2.70316
8.52	2.70546
8.53	2.70546
8.54	2.71698
8.55	2.72257
8.56	2.71961
8.57	2.70316
8.58	2.72948
8.59	2.75448
8.6	2.70152
8.61	2.73474
8.62	2.75086
8.63	2.76303
8.64	2.73869
8.65	2.75941
8.66	2.73474
8.67	2.70678
8.68	2.73112
8.69	2.74395
8.7	2.75316
8.71	2.7331
8.72	2.72816
8.73	2.7252
8.74	2.70744
8.75	2.74987
8.76	2.76172
8.77	2.76106
8.78	2.71237
8.79	2.6956
8.8	2.71731
8.81	2.69625
8.82	2.66862
8.83	2.71139
8.84	2.74955
8.85	2.73639
8.86	2.74889
8.87	2.70185
8.88	2.70514
8.89	2.70843
8.9	2.72158
8.91	2.72948
8.92	2.72125
8.93	2.7229
8.94	2.73014
8.95	2.74198
8.96	2.74461
8.97	2.71994
8.98	2.72652
8.99	2.73902
9	2.74329
9.01	2.73474
9.02	2.71336
9.03	2.71073
9.04	2.74395
9.05	2.73343
9.06	2.70481
9.07	2.73704
9.08	2.73869
9.09	2.70481
9.1	2.72422
9.11	2.71797
9.12	2.73343
9.13	2.72422
9.14	2.72981
9.15	2.74362
9.16	2.71928
9.17	2.68902
9.18	2.73737
9.19	2.72718
9.2	2.70941
9.21	2.71829
9.22	2.70514
9.23	2.70053
9.24	2.70711
9.25	2.7104
9.26	2.71599
9.27	2.71797
9.28	2.70678
9.29	2.71862
9.3	2.74527
9.31	2.73277
9.32	2.7275
9.33	2.7331
9.34	2.72224
9.35	2.71698
9.36	2.7354
9.37	2.72718
9.38	2.7025
9.39	2.72027
9.4	2.74757
9.41	2.74231
9.42	2.72553
9.43	2.72125
9.44	2.71533
9.45	2.73145
9.46	2.71369
9.47	2.71171
9.48	2.69954
9.49	2.71139
9.5	2.70514
9.51	2.69724
9.52	2.71731
9.53	2.73145
9.54	2.71797
9.55	2.71895
9.56	2.74231
9.57	2.72652
9.58	2.73145
9.59	2.7331
9.6	2.73902
9.61	2.73145
9.62	2.7479
9.63	2.69954
9.64	2.71928
9.65	2.71533
9.66	2.72027
9.67	2.73178
9.68	2.72224
9.69	2.71895
9.7	2.71073
9.71	2.72257
9.72	2.72981
9.73	2.74099
9.74	2.70481
9.75	2.72093
9.76	2.73079
9.77	2.71731
9.78	2.71566
9.79	2.72948
9.8	2.72422
9.81	2.72652
9.82	2.74987
9.83	2.7127
9.84	2.70612
9.85	2.715
9.86	2.71994
9.87	2.7581
9.88	2.74132
9.89	2.73376
9.9	2.72619
9.91	2.715
9.92	2.73376
9.93	2.70514
9.94	2.70546
9.95	2.74099
9.96	2.74001
9.97	2.75152
9.98	2.76073
9.99	2.72652
10	2.73704
10.01	2.70908
10.02	2.69724
10.03	2.71468
10.04	2.71698
10.05	2.70218
10.06	2.7104
10.07	2.71632
10.08	2.70152
10.09	2.71731
10.1	2.6956
10.11	2.73474
10.12	2.7252
10.13	2.74922
10.14	2.73441
10.15	2.76566
10.16	2.73869
10.17	2.72783
10.18	2.72027
10.19	2.70119
10.2	2.69395
10.21	2.70612
10.22	2.72981
10.23	2.7456
10.24	2.72257
10.25	2.70612
10.26	2.74757
10.27	2.6877
10.28	2.72816
10.29	2.78672
10.3	2.74823
10.31	2.73376
10.32	2.73244
10.33	2.70152
10.34	2.71336
10.35	2.70908
10.36	2.71204
10.37	2.69856
10.38	2.70974
10.39	2.73836
10.4	2.76106
10.41	2.74626
10.42	2.72356
10.43	2.72224
10.44	2.73112
10.45	2.75251
10.46	2.74428
10.47	2.76205
10.48	2.74297
10.49	2.7206
10.5	2.72158
10.51	2.7354
10.52	2.73474
10.53	2.73606
10.54	2.73079
10.55	2.76698
10.56	2.74987
10.57	2.73047
10.58	2.73047
10.59	2.72915
10.6	2.72224
10.61	2.71303
10.62	2.72981
10.63	2.70974
10.64	2.71829
10.65	2.74494
10.66	2.71139
10.67	2.69987
10.68	2.67915
10.69	2.70941
10.7	2.72882
10.71	2.72586
10.72	2.74066
10.73	2.70579
10.74	2.72257
10.75	2.715
10.76	2.72093
10.77	2.71533
10.78	2.74264
10.79	2.76172
10.8	2.71468
10.81	2.74823
10.82	2.73408
10.83	2.6956
10.84	2.71533
10.85	2.73343
10.86	2.71895
10.87	2.72422
10.88	2.73935
10.89	2.68902
10.9	2.72125
10.91	2.7206
10.92	2.70185
10.93	2.69428
10.94	2.71665
10.95	2.75218
10.96	2.72849
10.97	2.73573
10.98	2.68606
10.99	2.74001
11	2.73343
11.01	2.73145
11.02	2.71797
11.03	2.72586
11.04	2.71665
11.05	2.72685
11.06	2.71764
11.07	2.70185
11.08	2.66402
11.09	2.70349
11.1	2.70316
11.11	2.71402
11.12	2.7081
11.13	2.70546
11.14	2.6979
11.15	2.73408
11.16	2.69296
11.17	2.71106
11.18	2.71402
11.19	2.72849
11.2	2.70218
11.21	2.71698
11.22	2.68375
11.23	2.72323
11.24	2.71895
11.25	2.71435
11.26	2.71698
11.27	2.7025
11.28	2.73343
11.29	2.74856
11.3	2.7275
11.31	2.69165
11.32	2.71533
11.33	2.73343
11.34	2.70941
11.35	2.74033
11.36	2.70777
11.37	2.73014
11.38	2.72356
11.39	2.7104
11.4	2.74033
11.41	2.74165
11.42	2.70119
11.43	2.70843
11.44	2.72586
11.45	2.7479
11.46	2.71698
11.47	2.7229
11.48	2.7377
11.49	2.73836
11.5	2.71632
11.51	2.69527
11.52	2.72093
11.53	2.71928
11.54	2.71204
11.55	2.71237
11.56	2.70612
11.57	2.72191
11.58	2.70119
11.59	2.73112
11.6	2.71994
11.61	2.72652
11.62	2.74856
11.63	2.72619
11.64	2.75382
11.65	2.71928
11.66	2.715
11.67	2.70875
11.68	2.67783
11.69	2.72158
11.7	2.73803
11.71	2.71106
11.72	2.70514
11.73	2.7252
11.74	2.7081
11.75	2.72224
11.76	2.74395
11.77	2.72816
11.78	2.71336
11.79	2.68244
11.8	2.7104
11.81	2.74066
11.82	2.70711
11.83	2.71139
11.84	2.7002
11.85	2.7229
11.86	2.70974
11.87	2.70382
11.88	2.69921
11.89	2.71468
11.9	2.74856
11.91	2.72948
11.92	2.73178
11.93	2.70185
11.94	2.70053
11.95	2.69691
11.96	2.71533
11.97	2.71533
11.98	2.69757
11.99	2.70053
12	2.7081
12.01	2.70711
12.02	2.7229
12.03	2.69428
12.04	2.68046
12.05	2.69264
12.06	2.6956
12.07	2.71632
12.08	2.70349
12.09	2.72158
12.1	2.71402
12.11	2.71533
12.12	2.71139
12.13	2.69658
12.14	2.7331
12.15	2.74066
12.16	2.70349
12.17	2.68211
12.18	2.69691
12.19	2.70612
12.2	2.7025
12.21	2.70744
12.22	2.70546
12.23	2.73145
12.24	2.74757
12.25	2.71402
12.26	2.7354
12.27	2.71599
12.28	2.73112
12.29	2.74297
12.3	2.69428
12.31	2.70185
12.32	2.73244
12.33	2.71731
12.34	2.70678
12.35	2.71599
12.36	2.70546
12.37	2.71797
12.38	2.68178
12.39	2.70744
12.4	2.7081
12.41	2.73737
12.42	2.72257
12.43	2.70415
12.44	2.71369
12.45	2.69099
12.46	2.68639
12.47	2.72882
12.48	2.71665
12.49	2.71895
12.5	2.71336
12.51	2.71468
12.52	2.70908
12.53	2.7002
12.54	2.70579
12.55	2.715
12.56	2.69
12.57	2.70974
12.58	2.70908
12.59	2.69395
12.6	2.73737
12.61	2.71336
12.62	2.73244
12.63	2.69461
12.64	2.70908
12.65	2.73639
12.66	2.70086
12.67	2.69592
12.68	2.70514
12.69	2.69856
12.7	2.70316
12.71	2.73244
12.72	2.71303
12.73	2.6956
12.74	2.72224
12.75	2.7025
12.76	2.68342
12.77	2.73145
12.78	2.72093
12.79	2.71829
12.8	2.73639
12.81	2.7206
12.82	2.74395
12.83	2.73803
12.84	2.69592
12.85	2.70612
12.86	2.70941
12.87	2.74066
12.88	2.68474
12.89	2.71204
12.9	2.70283
12.91	2.68441
12.92	2.74198
12.93	2.71073
12.94	2.70777
12.95	2.71468
12.96	2.73803
12.97	2.72915
12.98	2.71829
12.99	2.71204
13	2.67783
13.01	2.71468
13.02	2.71764
13.03	2.69494
13.04	2.70711
13.05	2.71139
13.06	2.70875
13.07	2.71106
13.08	2.71797
13.09	2.71106
13.1	2.70546
13.11	2.69691
13.12	2.7104
13.13	2.70415
13.14	2.69757
13.15	2.67421
13.16	2.69658
13.17	2.69329
13.18	2.71073
13.19	2.67553
13.2	2.68342
13.21	2.70777
13.22	2.74823
13.23	2.70316
13.24	2.70908
13.25	2.71632
13.26	2.71237
13.27	2.69625
13.28	2.74987
13.29	2.70974
13.3	2.6979
13.31	2.71303
13.32	2.74757
13.33	2.71204
13.34	2.71764
13.35	2.72619
13.36	2.71336
13.37	2.7025
13.38	2.75974
13.39	2.72652
13.4	2.70843
13.41	2.72882
13.42	2.73277
13.43	2.72224
13.44	2.71073
13.45	2.68737
13.46	2.69231
13.47	2.72323
13.48	2.73343
13.49	2.74856
13.5	2.715
13.51	2.68803
13.52	2.68112
13.53	2.71895
13.54	2.7104
13.55	2.69987
13.56	2.71336
13.57	2.72027
13.58	2.6979
13.59	2.70448
13.6	2.70941
13.61	2.71369
13.62	2.70546
13.63	2.72882
13.64	2.73869
13.65	2.71369
13.66	2.6854
13.67	2.7025
13.68	2.69592
13.69	2.7025
13.7	2.73935
13.71	2.71862
13.72	2.70579
13.73	2.70777
13.74	2.70119
