"BIO-KINE ASCII FILE"
"_COMMENT"	"MOS-500 Spectrometer"
"_COMMENT"	"Kinetics measurement"
"_COMMENT"	"Y Unit : Volt,  X Unit : s"
"_COMMENT"	"Excitation wavelength : 380 nm"
"_COMMENT"	"Fentes bandwidth =  1 nm"
"_COMMENT"	"HV= 1000V"
"_COMMENT"	"Timebase  1 =  .01 s   5001 pts"
"_SFM"	"SFM-400 /S  Advanced mode"
"_SFM"	"Ratio : S1: 2.5, S2: 0, S3: 0, S4: 1"
"_SFM"	"Content : S1: , S2: , S3: , S4:"
"_SFM"	"Concentration : S1: , S2: , S3: , S4:"
"_SFM"	"Total volume : 209 µl  Flow : 3.5 mL/s"
"_SFM"	"Acquisition start :  10 ms before stop"
"_SFM"	"cuve=FC-15, s1=10 ml , s2=10 ml , s3=10 ml , s4=1.9 ml"
"_UNITX"	"s"
"_UNITY"	"Volt"
"_DELTAX"	0
"_DATA"
1e-300	5.07495
0.01	5.55786
0.02	6.02761
0.03	6.18913
0.04	6.20327
0.05	6.25294
0.06	6.26577
0.07	6.25229
0.08	6.29472
0.09	6.31216
0.1	6.30097
0.11	6.37038
0.12	6.3365
0.13	6.35722
0.14	6.32696
0.15	6.35722
0.16	6.3138
0.17	6.36084
0.18	6.3342
0.19	6.3365
0.2	6.30952
0.21	6.36676
0.22	6.3217
0.23	6.32827
0.24	6.3842
0.25	6.3536
0.26	6.37268
0.27	6.35492
0.28	6.33946
0.29	6.33979
0.3	6.25722
0.31	6.34637
0.32	6.40361
0.33	6.35196
0.34	6.34439
0.35	6.38946
0.36	6.38058
0.37	6.33255
0.38	6.33617
0.39	6.29571
0.4	6.3638
0.41	6.36643
0.42	6.34439
0.43	6.30262
0.44	6.26117
0.45	6.30689
0.46	6.34702
0.47	6.33354
0.48	6.36841
0.49	6.32959
0.5	6.30623
0.51	6.38189
0.52	6.36413
0.53	6.29176
0.54	6.34538
0.55	6.33946
0.56	6.32137
0.57	6.25689
0.58	6.27926
0.59	6.31841
0.6	6.30821
0.61	6.31183
0.62	6.30952
0.63	6.28321
0.64	6.299
0.65	6.23189
0.66	6.28156
0.67	6.299
0.68	6.2865
0.69	6.26413
0.7	6.24932
0.71	6.23979
0.72	6.28551
0.73	6.26775
0.74	6.26808
0.75	6.26873
0.76	6.26018
0.77	6.23682
0.78	6.23748
0.79	6.24472
0.8	6.30426
0.81	6.24077
0.82	6.24998
0.83	6.26511
0.84	6.31051
0.85	6.26906
0.86	6.23518
0.87	6.21478
0.88	6.21709
0.89	6.21084
0.9	6.1957
0.91	6.21775
0.92	6.20623
0.93	6.27202
0.94	6.2434
0.95	6.18617
0.96	6.16873
0.97	6.18452
0.98	6.18485
0.99	6.19274
1	6.22498
1.01	6.20294
1.02	6.19307
1.03	6.16709
1.04	6.23057
1.05	6.20261
1.06	6.1763
1.07	6.17301
1.08	6.15294
1.09	6.15228
1.1	6.19505
1.11	6.16018
1.12	6.18189
1.13	6.16281
1.14	6.17136
1.15	6.19932
1.16	6.15097
1.17	6.17038
1.18	6.17301
1.19	6.14406
1.2	6.19702
1.21	6.16906
1.22	6.19965
1.23	6.14899
1.24	6.18024
1.25	6.18814
1.26	6.12564
1.27	6.15787
1.28	6.13287
1.29	6.18518
1.3	6.09439
1.31	6.12399
1.32	6.09077
1.33	6.14373
1.34	6.17761
1.35	6.15886
1.36	6.1309
1.37	6.10261
1.38	6.14899
1.39	6.0855
1.4	6.0832
1.41	6.1332
1.42	6.09274
1.43	6.13386
1.44	6.10722
1.45	6.0661
1.46	6.0809
1.47	6.08156
1.48	6.0957
1.49	6.08452
1.5	6.08781
1.51	6.12004
1.52	6.06379
1.53	6.04077
1.54	6.09274
1.55	6.09307
1.56	6.09241
1.57	6.08781
1.58	6.06873
1.59	6.03912
1.6	6.07893
1.61	6.06215
1.62	6.10261
1.63	6.11708
1.64	6.09373
1.65	6.06248
1.66	6.02465
1.67	6.05985
1.68	6.07202
1.69	6.04537
1.7	6.05853
1.71	6.04866
1.72	6.07037
1.73	6.08978
1.74	6.09143
1.75	6.048
1.76	6.03682
1.77	6.06971
1.78	6.05524
1.79	6.04504
1.8	5.99241
1.81	6.01313
1.82	6.02465
1.83	6.00162
1.84	6.02958
1.85	6.03649
1.86	5.97037
1.87	6.00853
1.88	6.01708
1.89	6.01478
1.9	5.99767
1.91	5.99767
1.92	6.0003
1.93	6.0207
1.94	6.01313
1.95	6.01774
1.96	5.99011
1.97	5.96741
1.98	6.03978
1.99	6.03386
2	5.9832
2.01	6.00524
2.02	6.00392
2.03	6.02629
2.04	6.00425
2.05	5.97432
2.06	5.96708
2.07	5.98451
2.08	6.00359
2.09	5.95557
2.1	5.99504
2.11	6.00096
2.12	5.98912
2.13	5.94965
2.14	5.93287
2.15	5.93879
2.16	5.94636
2.17	5.97432
2.18	5.96544
2.19	5.94636
2.2	5.98188
2.21	6.0003
2.22	5.94241
2.23	5.93451
2.24	5.9378
2.25	5.92596
2.26	5.98748
2.27	6.02004
2.28	5.94011
2.29	5.9253
2.3	5.96247
2.31	5.95984
2.32	5.92563
2.33	5.93057
2.34	5.86971
2.35	5.89274
2.36	5.92596
2.37	5.9457
2.38	5.9026
2.39	5.95754
2.4	5.97794
2.41	5.97761
2.42	5.96215
2.43	5.93418
2.44	5.90787
2.45	5.87102
2.46	5.89208
2.47	5.92432
2.48	5.9355
2.49	5.8753
2.5	5.90557
2.51	5.89438
2.52	5.8878
2.53	5.91872
2.54	5.91379
2.55	5.90721
2.56	5.90425
2.57	5.89405
2.58	5.95886
2.59	5.87727
2.6	5.873
2.61	5.8503
2.62	5.85425
2.63	5.85984
2.64	5.89208
2.65	5.90063
2.66	5.89603
2.67	5.81576
2.68	5.83583
2.69	5.83912
2.7	5.89931
2.71	5.81444
2.72	5.85162
2.73	5.91083
2.74	5.8901
2.75	5.80194
2.76	5.79043
2.77	5.81642
2.78	5.85195
2.79	5.85491
2.8	5.83944
2.81	5.84504
2.82	5.83583
2.83	5.83122
2.84	5.85984
2.85	5.90293
2.86	5.89668
2.87	5.83681
2.88	5.83944
2.89	5.78944
2.9	5.85688
2.91	5.823
2.92	5.83254
2.93	5.79339
2.94	5.84767
2.95	5.82859
2.96	5.8003
2.97	5.86445
2.98	5.85885
2.99	5.88089
3	5.85984
3.01	5.83517
3.02	5.84043
3.03	5.86675
3.04	5.79306
3.05	5.76872
3.06	5.79602
3.07	5.81444
3.08	5.76477
3.09	5.77431
3.1	5.83616
3.11	5.74569
3.12	5.79043
3.13	5.85622
3.14	5.82333
3.15	5.81017
3.16	5.78056
3.17	5.75984
3.18	5.74734
3.19	5.74109
3.2	5.83879
3.21	5.75951
3.22	5.77003
3.23	5.80392
3.24	5.81839
3.25	5.81017
3.26	5.798
3.27	5.77003
3.28	5.77036
3.29	5.79668
3.3	5.81642
3.31	5.79339
3.32	5.74997
3.33	5.7628
3.34	5.77826
3.35	5.76905
3.36	5.76675
3.37	5.77365
3.38	5.75852
3.39	5.76346
3.4	5.75589
3.41	5.78089
3.42	5.75227
3.43	5.75885
3.44	5.76905
3.45	5.80096
3.46	5.77234
3.47	5.72234
3.48	5.70984
3.49	5.76115
3.5	5.74865
3.51	5.75359
3.52	5.78319
3.53	5.7628
3.54	5.71576
3.55	5.74767
3.56	5.75885
3.57	5.75194
3.58	5.77826
3.59	5.71576
3.6	5.75688
3.61	5.76444
3.62	5.72201
3.63	5.77036
3.64	5.72234
3.65	5.6901
3.66	5.70622
3.67	5.72464
3.68	5.72365
3.69	5.68747
3.7	5.71313
3.71	5.6878
3.72	5.7276
3.73	5.69931
3.74	5.70556
3.75	5.69076
3.76	5.70227
3.77	5.7049
3.78	5.6697
3.79	5.68812
3.8	5.68023
3.81	5.72628
3.82	5.69997
3.83	5.66214
3.84	5.66148
3.85	5.7197
3.86	5.71181
3.87	5.70688
3.88	5.69043
3.89	5.64174
3.9	5.69668
3.91	5.66806
3.92	5.72135
3.93	5.69668
3.94	5.65786
3.95	5.70951
3.96	5.67727
3.97	5.66543
3.98	5.62661
3.99	5.68615
4	5.68418
4.01	5.72365
4.02	5.65391
4.03	5.74602
4.04	5.71872
4.05	5.68549
4.06	5.64997
4.07	5.6424
4.08	5.69372
4.09	5.66576
4.1	5.67201
4.11	5.66444
4.12	5.68418
4.13	5.63154
4.14	5.58681
4.15	5.57694
4.16	5.61707
4.17	5.64437
4.18	5.63911
4.19	5.64733
4.2	5.622
4.21	5.58385
4.22	5.62496
4.23	5.65424
4.24	5.64733
4.25	5.62562
4.26	5.65326
4.27	5.61641
4.28	5.66872
4.29	5.63385
4.3	5.55983
4.31	5.59799
4.32	5.65786
4.33	5.63154
4.34	5.64404
4.35	5.63352
4.36	5.61082
4.37	5.60983
4.38	5.61543
4.39	5.63056
4.4	5.63483
4.41	5.57661
4.42	5.57003
4.43	5.57957
4.44	5.60819
4.45	5.64075
4.46	5.62233
4.47	5.61082
4.48	5.55259
4.49	5.61312
4.5	5.62299
4.51	5.59108
4.52	5.64339
4.53	5.59996
4.54	5.57792
4.55	5.56049
4.56	5.60062
4.57	5.62661
4.58	5.59602
4.59	5.6026
4.6	5.63944
4.61	5.56411
4.62	5.58154
4.63	5.58056
4.64	5.6095
4.65	5.5845
4.66	5.59931
4.67	5.5822
4.68	5.60095
4.69	5.59042
4.7	5.55983
4.71	5.5345
4.72	5.54075
4.73	5.55161
4.74	5.55654
4.75	5.51575
4.76	5.58878
4.77	5.55391
4.78	5.60917
4.79	5.55523
4.8	5.59404
4.81	5.54536
4.82	5.58121
4.83	5.56345
4.84	5.56082
4.85	5.54207
4.86	5.55424
4.87	5.52332
4.88	5.56444
4.89	5.57891
4.9	5.54009
4.91	5.56345
4.92	5.56082
4.93	5.51608
4.94	5.55555
4.95	5.56773
4.96	5.56773
4.97	5.55753
4.98	5.57891
4.99	5.61246
5	5.54865
5.01	5.5424
5.02	5.5368
5.03	5.52891
5.04	5.51115
5.05	5.54174
5.06	5.58023
5.07	5.52397
5.08	5.53483
5.09	5.56213
5.1	5.56608
5.11	5.52496
5.12	5.53187
5.13	5.55325
5.14	5.51838
5.15	5.497
5.16	5.5197
5.17	5.53121
5.18	5.54536
5.19	5.53154
5.2	5.55588
5.21	5.51279
5.22	5.51345
5.23	5.50851
5.24	5.50325
5.25	5.51246
5.26	5.51312
5.27	5.5174
5.28	5.472
5.29	5.55687
5.3	5.54832
5.31	5.55128
5.32	5.53713
5.33	5.48483
5.34	5.4822
5.35	5.45983
5.36	5.51312
5.37	5.52167
5.38	5.49141
5.39	5.54634
5.4	5.5424
5.41	5.49075
5.42	5.51444
5.43	5.49075
5.44	5.44108
5.45	5.48845
5.46	5.47891
5.47	5.45818
5.48	5.46542
5.49	5.48154
5.5	5.47858
5.51	5.45193
5.52	5.43746
5.53	5.47266
5.54	5.52397
5.55	5.472
5.56	5.48614
5.57	5.49601
5.58	5.47595
5.59	5.47529
5.6	5.48746
5.61	5.4868
5.62	5.47628
5.63	5.51575
5.64	5.44897
5.65	5.497
5.66	5.47693
5.67	5.50424
5.68	5.50358
5.69	5.48614
5.7	5.46937
5.71	5.45424
5.72	5.44634
5.73	5.46049
5.74	5.44075
5.75	5.48022
5.76	5.52694
5.77	5.47299
5.78	5.45983
5.79	5.43187
5.8	5.43549
5.81	5.36147
5.82	5.38351
5.83	5.4072
5.84	5.43713
5.85	5.43121
5.86	5.42101
5.87	5.422
5.88	5.45095
5.89	5.41147
5.9	5.45753
5.91	5.4345
5.92	5.41476
5.93	5.4095
5.94	5.44996
5.95	5.44206
5.96	5.41213
5.97	5.43252
5.98	5.44535
5.99	5.4447
6	5.4141
6.01	5.47792
6.02	5.40983
6.03	5.46312
6.04	5.43417
6.05	5.39798
6.06	5.39502
6.07	5.44239
6.08	5.43384
6.09	5.38746
6.1	5.36246
6.11	5.40522
6.12	5.4197
6.13	5.39634
6.14	5.45588
6.15	5.46542
6.16	5.41739
6.17	5.40489
6.18	5.39502
6.19	5.39831
6.2	5.42002
6.21	5.44174
6.22	5.41246
6.23	5.39338
6.24	5.41443
6.25	5.42924
6.26	5.42858
6.27	5.37759
6.28	5.37989
6.29	5.40193
6.3	5.40983
6.31	5.36575
6.32	5.38252
6.33	5.40621
6.34	5.39535
6.35	5.40983
6.36	5.39864
6.37	5.35818
6.38	5.38417
6.39	5.41542
6.4	5.397
6.41	5.42463
6.42	5.41345
6.43	5.48943
6.44	5.40588
6.45	5.41805
6.46	5.38943
6.47	5.36904
6.48	5.40029
6.49	5.35456
6.5	5.39437
6.51	5.40127
6.52	5.39831
6.53	5.35325
6.54	5.33318
6.55	5.36476
6.56	5.3766
6.57	5.34404
6.58	5.30884
6.59	5.32825
6.6	5.35621
6.61	5.36344
6.62	5.32331
6.63	5.35193
6.64	5.35456
6.65	5.35818
6.66	5.35719
6.67	5.28285
6.68	5.3243
6.69	5.37956
6.7	5.3789
6.71	5.34404
6.72	5.32298
6.73	5.30588
6.74	5.33844
6.75	5.35325
6.76	5.37529
6.77	5.30851
6.78	5.34502
6.79	5.35423
6.8	5.35292
6.81	5.35818
6.82	5.35489
6.83	5.31278
6.84	5.34996
6.85	5.36673
6.86	5.30028
6.87	5.32759
6.88	5.33088
6.89	5.39667
6.9	5.33746
6.91	5.30884
6.92	5.35029
6.93	5.40127
6.94	5.36542
6.95	5.32825
6.96	5.3243
6.97	5.3289
6.98	5.3493
6.99	5.34568
7	5.29239
7.01	5.28745
7.02	5.32792
7.03	5.31936
7.04	5.27463
7.05	5.35818
7.06	5.34831
7.07	5.32528
7.08	5.29338
7.09	5.31147
7.1	5.31509
7.11	5.29732
7.12	5.28647
7.13	5.34502
7.14	5.3345
7.15	5.36608
7.16	5.34732
7.17	5.27989
7.18	5.32792
7.19	5.35358
7.2	5.33581
7.21	5.29699
7.22	5.31114
7.23	5.27989
7.24	5.30324
7.25	5.30653
7.26	5.29042
7.27	5.29042
7.28	5.30785
7.29	5.34601
7.3	5.3164
7.31	5.33384
7.32	5.37101
7.33	5.29601
7.34	5.29074
7.35	5.30752
7.36	5.31805
7.37	5.29074
7.38	5.25719
7.39	5.30884
7.4	5.2789
7.41	5.25061
7.42	5.29601
7.43	5.29042
7.44	5.26673
7.45	5.32331
7.46	5.29107
7.47	5.22594
7.48	5.30028
7.49	5.28153
7.5	5.26377
7.51	5.29699
7.52	5.26805
7.53	5.28713
7.54	5.29206
7.55	5.27956
7.56	5.28285
7.57	5.26213
7.58	5.26344
7.59	5.2687
7.6	5.29535
7.61	5.31903
7.62	5.2437
7.63	5.26936
7.64	5.30522
7.65	5.29042
7.66	5.23416
7.67	5.27331
7.68	5.27068
7.69	5.28548
7.7	5.30127
7.71	5.31673
7.72	5.30226
7.73	5.2641
7.74	5.2743
7.75	5.27035
7.76	5.28186
7.77	5.26838
7.78	5.23087
7.79	5.24798
7.8	5.24337
7.81	5.24206
7.82	5.27726
7.83	5.26311
7.84	5.25686
7.85	5.22298
7.86	5.25686
7.87	5.23976
7.88	5.24436
7.89	5.27594
7.9	5.28384
7.91	5.28186
7.92	5.27726
7.93	5.26377
7.94	5.26377
7.95	5.2539
7.96	5.27627
7.97	5.22758
7.98	5.24831
7.99	5.23055
8	5.28351
8.01	5.26574
8.02	5.2743
8.03	5.20225
8.04	5.23745
8.05	5.27134
8.06	5.23976
8.07	5.23219
8.08	5.21278
8.09	5.24732
8.1	5.26311
8.11	5.21081
8.12	5.27759
8.13	5.2618
8.14	5.22693
8.15	5.24535
8.16	5.25949
8.17	5.20489
8.18	5.25851
8.19	5.23351
8.2	5.24995
8.21	5.23943
8.22	5.21772
8.23	5.23087
8.24	5.20357
8.25	5.21837
8.26	5.20456
8.27	5.2039
8.28	5.19568
8.29	5.27726
8.3	5.22758
8.31	5.22265
8.32	5.21344
8.33	5.25686
8.34	5.24502
8.35	5.23482
8.36	5.19535
8.37	5.19074
8.38	5.24041
8.39	5.22824
8.4	5.18778
8.41	5.16114
8.42	5.20258
8.43	5.23943
8.44	5.22495
8.45	5.23811
8.46	5.18383
8.47	5.23219
8.48	5.2266
8.49	5.24272
8.5	5.21607
8.51	5.22462
8.52	5.20818
8.53	5.18581
8.54	5.18054
8.55	5.19074
8.56	5.21311
8.57	5.22791
8.58	5.22462
8.59	5.20785
8.6	5.25094
8.61	5.19469
8.62	5.17331
8.63	5.18252
8.64	5.21903
8.65	5.19633
8.66	5.22101
8.67	5.16015
8.68	5.1687
8.69	5.20719
8.7	5.15094
8.71	5.16048
8.72	5.19173
8.73	5.15357
8.74	5.16475
8.75	5.20423
8.76	5.22429
8.77	5.21541
8.78	5.17594
8.79	5.21969
8.8	5.18975
8.81	5.18416
8.82	5.19798
8.83	5.20225
8.84	5.26673
8.85	5.19469
8.86	5.19173
8.87	5.17265
8.88	5.2039
8.89	5.19995
8.9	5.17166
8.91	5.11245
8.92	5.16804
8.93	5.15488
8.94	5.15686
8.95	5.15357
8.96	5.171
8.97	5.18581
8.98	5.17035
8.99	5.17067
9	5.196
9.01	5.19535
9.02	5.19929
9.03	5.2016
9.04	5.16245
9.05	5.1664
9.06	5.19995
9.07	5.15817
9.08	5.19107
9.09	5.16048
9.1	5.13449
9.11	5.1585
9.12	5.16837
9.13	5.17989
9.14	5.14337
9.15	5.18449
9.16	5.18318
9.17	5.2164
9.18	5.19436
9.19	5.18318
9.2	5.17561
9.21	5.18318
9.22	5.21344
9.23	5.16212
9.24	5.13712
9.25	5.171
9.26	5.13515
9.27	5.15094
9.28	5.19436
9.29	5.15225
9.3	5.14798
9.31	5.14633
9.32	5.14929
9.33	5.12857
9.34	5.12627
9.35	5.13449
9.36	5.146
9.37	5.13646
9.38	5.171
9.39	5.14008
9.4	5.15423
9.41	5.171
9.42	5.13679
9.43	5.13054
9.44	5.16212
9.45	5.15456
9.46	5.19272
9.47	5.14962
9.48	5.15949
9.49	5.1539
9.5	5.16607
9.51	5.16804
9.52	5.15258
9.53	5.16442
9.54	5.17956
9.55	5.14173
9.56	5.11475
9.57	5.09863
9.58	5.06969
9.59	5.14502
9.6	5.1289
9.61	5.15521
9.62	5.08284
9.63	5.07561
9.64	5.13383
9.65	5.14929
9.66	5.12067
9.67	5.13975
9.68	5.17002
9.69	5.18383
9.7	5.14929
9.71	5.10587
9.72	5.16508
9.73	5.10225
9.74	5.11804
9.75	5.15324
9.76	5.14173
9.77	5.08745
9.78	5.10028
9.79	5.14469
9.8	5.14896
9.81	5.12034
9.82	5.16442
9.83	5.14798
9.84	5.14633
9.85	5.17429
9.86	5.16311
9.87	5.10686
9.88	5.08021
9.89	5.13515
9.9	5.12396
9.91	5.14863
9.92	5.15686
9.93	5.09304
9.94	5.14403
9.95	5.09271
9.96	5.09929
9.97	5.10686
9.98	5.09995
9.99	5.121
10	5.11278
10.01	5.11673
10.02	5.13778
10.03	5.11936
10.04	5.08449
10.05	5.12133
10.06	5.08811
10.07	5.09436
10.08	5.07001
10.09	5.17331
10.1	5.17002
10.11	5.10488
10.12	5.12265
10.13	5.146
10.14	5.09205
10.15	5.10258
10.16	5.07922
10.17	5.08054
10.18	5.09962
10.19	5.10949
10.2	5.10126
10.21	5.15785
10.22	5.12002
10.23	5.11508
10.24	5.12594
10.25	5.10357
10.26	5.09995
10.27	5.12462
10.28	5.11837
10.29	5.05291
10.3	5.04962
10.31	5.09173
10.32	5.09534
10.33	5.12594
10.34	5.11574
10.35	5.1085
10.36	5.09107
10.37	5.10028
10.38	5.08646
10.39	5.07166
10.4	5.08251
10.41	5.11146
10.42	5.11015
10.43	5.06705
10.44	5.06837
10.45	5.0733
10.46	5.0835
10.47	5.0812
10.48	5.096
10.49	5.05653
10.5	5.05916
10.51	5.03251
10.52	5.09403
10.53	5.05291
10.54	5.07659
10.55	5.08416
10.56	5.08054
10.57	5.09765
10.58	5.09732
10.59	5.06376
10.6	5.0437
10.61	5.11804
10.62	5.0937
10.63	5.0664
10.64	5.08811
10.65	5.08712
10.66	5.121
10.67	5.11179
10.68	5.11936
10.69	5.10817
10.7	5.08613
10.71	5.12067
10.72	5.0835
10.73	5.07725
10.74	5.10817
10.75	5.10784
10.76	5.09798
10.77	5.06409
10.78	5.12067
10.79	5.07725
10.8	5.06343
10.81	5.04633
10.82	5.04863
10.83	5.06672
10.84	5.08383
10.85	5.07955
10.86	5.06804
10.87	5.13712
10.88	5.07199
10.89	5.07758
10.9	5.08646
10.91	5.07626
10.92	5.05291
10.93	5.0256
10.94	5.07626
10.95	5.08317
10.96	5.06936
10.97	5.05258
10.98	5.06409
10.99	5.05061
11	5.06442
11.01	5.08251
11.02	5.05488
11.03	5.04962
11.04	5.04041
11.05	5.05028
11.06	5.02001
11.07	5.0483
11.08	5.03712
11.09	5.0664
11.1	5.02429
11.11	5.02528
11.12	5.04337
11.13	5.04666
11.14	5.0789
11.15	5.05455
11.16	5.0483
11.17	5.09238
11.18	5.05554
11.19	5.04995
11.2	5.04074
11.21	5.01639
11.22	5.04008
11.23	5.05028
11.24	5.06837
11.25	5.07363
11.26	5.04863
11.27	5.03383
11.28	5.04205
11.29	5.06574
11.3	5.11409
11.31	5.06903
11.32	5.04304
11.33	4.98777
11.34	5.02889
11.35	5.06837
11.36	5.08021
11.37	5.05126
11.38	5.02495
11.39	5.00817
11.4	5.01935
11.41	5.05784
11.42	5.04403
11.43	5.05554
11.44	5.02034
11.45	5.03679
11.46	5.04041
11.47	5.07561
11.48	5.02462
11.49	5.00784
11.5	5.0483
11.51	5.04403
11.52	5.06212
11.53	5.0789
11.54	5.05982
11.55	5.03383
11.56	5.0664
11.57	5.06179
11.58	5.04205
11.59	5.0539
11.6	5.05324
11.61	5.03909
11.62	5.02988
11.63	4.98712
11.64	5.00126
11.65	5.01278
11.66	5.05159
11.67	5.08778
11.68	5.04139
11.69	5.06212
11.7	4.99041
11.71	5.00916
11.72	5.02955
11.73	5.09534
11.74	5.09436
11.75	5.04929
11.76	5.0483
11.77	5.08811
11.78	5.03679
11.79	5.01475
11.8	5.02889
11.81	5.02363
11.82	5.01639
11.83	5.0108
11.84	5.00883
11.85	5.04929
11.86	5.07067
11.87	5.01409
11.88	5.03778
11.89	5.04666
11.9	4.98777
11.91	5.03416
11.92	5.03317
11.93	5.02758
11.94	5.0539
11.95	5.02199
11.96	5.03153
11.97	5.04534
11.98	4.9881
11.99	4.99995
12	5.0437
12.01	5.02199
12.02	5.01541
12.03	5.03284
12.04	4.98843
12.05	4.99929
12.06	4.99797
12.07	5.00916
12.08	5.01541
12.09	5.03087
12.1	5.01113
12.11	5.01903
12.12	5.01935
12.13	5.03482
12.14	5.0006
12.15	5.021
12.16	5.02593
12.17	4.9881
12.18	4.98317
12.19	5.00389
12.2	4.99962
12.21	5.01212
12.22	5.01278
12.23	5.02232
12.24	5.01508
12.25	5.0437
12.26	5.02363
12.27	4.96376
12.28	4.93251
12.29	4.96508
12.3	5.03745
12.31	5.01212
12.32	4.99074
12.33	5.05554
12.34	5.02988
12.35	5.00192
12.36	4.99468
12.37	4.99238
12.38	5.02626
12.39	5.02001
12.4	5.02297
12.41	4.99797
12.42	5.01409
12.43	4.96475
12.44	5.03218
12.45	4.99271
12.46	4.99304
12.47	4.97823
12.48	5.00784
12.49	5.01442
12.5	4.98745
12.51	4.98021
12.52	5.0108
12.53	4.97297
12.54	4.97758
12.55	5.01245
12.56	5.04205
12.57	5.03975
12.58	5.03153
12.59	4.99501
12.6	4.96409
12.61	5.00356
12.62	4.99074
12.63	5.02659
12.64	5.00718
12.65	4.98317
12.66	4.99699
12.67	4.98383
12.68	5.00653
12.69	4.96705
12.7	5.01212
12.71	5.01442
12.72	4.99172
12.73	4.97856
12.74	5.01343
12.75	5.00126
12.76	4.98185
12.77	4.99995
12.78	4.99633
12.79	5.00817
12.8	5.03054
12.81	4.9483
12.82	4.9585
12.83	4.98317
12.84	4.99962
12.85	5.01606
12.86	5.01278
12.87	4.9812
12.88	4.96639
12.89	5.0006
12.9	4.92758
12.91	4.96047
12.92	5.03778
12.93	5.02692
12.94	4.96606
12.95	4.94896
12.96	5.0062
12.97	5.02725
12.98	5.00784
12.99	4.996
13	5.00192
13.01	4.96376
13.02	4.95192
13.03	5.0108
13.04	5.00225
13.05	5.00751
13.06	4.99008
13.07	4.96113
13.08	4.97626
13.09	5.01047
13.1	4.98284
13.11	5.01672
13.12	4.98613
13.13	4.98021
13.14	5.00389
13.15	5.01771
13.16	4.98547
13.17	4.98152
13.18	4.99896
13.19	4.97955
13.2	4.9937
13.21	4.96442
13.22	4.94304
13.23	4.99567
13.24	4.95652
13.25	4.92659
13.26	4.93843
13.27	4.9756
13.28	5.01113
13.29	5.02396
13.3	4.99468
13.31	4.97166
13.32	4.99271
13.33	5.00126
13.34	4.96409
13.35	4.95488
13.36	4.96508
13.37	4.95258
13.38	4.96935
13.39	4.95356
13.4	5.00981
13.41	4.98547
13.42	4.94402
13.43	4.97791
13.44	4.97791
13.45	4.95784
13.46	4.99896
13.47	4.96146
13.48	4.97593
13.49	4.96606
13.5	4.99501
13.51	4.99797
13.52	4.9608
13.53	4.98975
13.54	4.96935
13.55	4.98054
13.56	4.95455
13.57	4.96047
13.58	4.9756
13.59	5.00192
13.6	4.98646
13.61	4.9687
13.62	4.96113
13.63	4.98975
13.64	4.95323
13.65	4.97264
13.66	4.95619
13.67	4.98843
13.68	5.01475
13.69	4.97495
13.7	4.93975
13.71	4.95356
13.72	4.9756
13.73	4.97166
13.74	4.97758
13.75	4.98317
13.76	4.971
