"BIO-KINE ASCII FILE"
"_COMMENT"	"MOS-500 Spectrometer"
"_COMMENT"	"Kinetics measurement"
"_COMMENT"	"Y Unit : Volt,  X Unit : s"
"_COMMENT"	"Excitation wavelength : 380 nm"
"_COMMENT"	"Fentes bandwidth =  1 nm"
"_COMMENT"	"HV= 700V"
"_COMMENT"	"Timebase  1 =  .01 s   3001 pts"
"_SFM"	"SFM-400 /S  Advanced mode"
"_SFM"	"Ratio : S1: 2.5, S2: 0, S3: 0, S4: 1"
"_SFM"	"Content : S1: , S2: , S3: , S4:"
"_SFM"	"Concentration : S1: , S2: , S3: , S4:"
"_SFM"	"Total volume : 209 µl  Flow : 3.5 mL/s"
"_SFM"	"Acquisition start :  10 ms before stop"
"_SFM"	"cuve=FC-15, s1=10 ml , s2=10 ml , s3=10 ml , s4=1.9 ml"
"_UNITX"	"s"
"_UNITY"	"Volt"
"_DELTAX"	0
"_DATA"
1e-300	7.96746
0.01	8.6336
0.02	8.80761
0.03	8.79676
0.04	8.81748
0.05	8.82307
0.06	8.82603
0.07	8.83261
0.08	8.83261
0.09	8.84709
0.1	8.8336
0.11	8.83261
0.12	8.84676
0.13	8.84774
0.14	8.84413
0.15	8.84314
0.16	8.83623
0.17	8.83195
0.18	8.82932
0.19	8.84544
0.2	8.83492
0.21	8.8359
0.22	8.82899
0.23	8.82505
0.24	8.83557
0.25	8.8234
0.26	8.80827
0.27	8.81419
0.28	8.80103
0.29	8.80564
0.3	8.80893
0.31	8.79018
0.32	8.78228
0.33	8.78228
0.34	8.77899
0.35	8.76222
0.36	8.76386
0.37	8.74708
0.38	8.76024
0.39	8.74741
0.4	8.73129
0.41	8.73623
0.42	8.74478
0.43	8.72801
0.44	8.72044
0.45	8.71222
0.46	8.71386
0.47	8.69939
0.48	8.69149
0.49	8.68557
0.5	8.69544
0.51	8.65629
0.52	8.65827
0.53	8.66715
0.54	8.65991
0.55	8.64445
0.56	8.64248
0.57	8.64248
0.58	8.64248
0.59	8.61188
0.6	8.60333
0.61	8.61682
0.62	8.61419
0.63	8.59774
0.64	8.59577
0.65	8.58524
0.66	8.58327
0.67	8.58294
0.68	8.55267
0.69	8.56188
0.7	8.55958
0.71	8.54083
0.72	8.55004
0.73	8.53721
0.74	8.54412
0.75	8.52899
0.76	8.51813
0.77	8.51451
0.78	8.51188
0.79	8.50234
0.8	8.50859
0.81	8.48458
0.82	8.48195
0.83	8.48688
0.84	8.46945
0.85	8.47109
0.86	8.46418
0.87	8.45892
0.88	8.46451
0.89	8.45366
0.9	8.45431
0.91	8.42471
0.92	8.42405
0.93	8.41616
0.94	8.42043
0.95	8.39708
0.96	8.38063
0.97	8.38787
0.98	8.38293
0.99	8.37569
1	8.37339
1.01	8.36254
1.02	8.35004
1.03	8.34313
1.04	8.32569
1.05	8.35168
1.06	8.33161
1.07	8.31648
1.08	8.31714
1.09	8.30431
1.1	8.29313
1.11	8.30596
1.12	8.28951
1.13	8.28918
1.14	8.27898
1.15	8.28589
1.16	8.2599
1.17	8.24773
1.18	8.25201
1.19	8.25267
1.2	8.24642
1.21	8.23556
1.22	8.22964
1.23	8.22339
1.24	8.21681
1.25	8.20957
1.26	8.20464
1.27	8.20135
1.28	8.19247
1.29	8.18918
1.3	8.17503
1.31	8.16845
1.32	8.16352
1.33	8.15562
1.34	8.15661
1.35	8.13556
1.36	8.13424
1.37	8.1474
1.38	8.12569
1.39	8.12273
1.4	8.11582
1.41	8.0997
1.42	8.09641
1.43	8.09082
1.44	8.07371
1.45	8.06714
1.46	8.07766
1.47	8.06023
1.48	8.04871
1.49	8.03654
1.5	8.03424
1.51	8.02569
1.52	8.03062
1.53	8.01615
1.54	8.02042
1.55	8.02174
1.56	8.00595
1.57	7.98917
1.58	7.99411
1.59	7.99411
1.6	7.97108
1.61	7.97042
1.62	7.96976
1.63	7.95957
1.64	7.95562
1.65	7.95266
1.66	7.95003
1.67	7.93687
1.68	7.92963
1.69	7.91318
1.7	7.91812
1.71	7.90496
1.72	7.88555
1.73	7.88851
1.74	7.89476
1.75	7.87305
1.76	7.86318
1.77	7.86647
1.78	7.86417
1.79	7.85035
1.8	7.84937
1.81	7.84476
1.82	7.83588
1.83	7.82766
1.84	7.81351
1.85	7.81088
1.86	7.8145
1.87	7.81121
1.88	7.80923
1.89	7.77568
1.9	7.76614
1.91	7.7668
1.92	7.75989
1.93	7.75989
1.94	7.7418
1.95	7.74377
1.96	7.74871
1.97	7.72996
1.98	7.73588
1.99	7.71746
2	7.7089
2.01	7.70199
2.02	7.6964
2.03	7.69081
2.04	7.67634
2.05	7.66976
2.06	7.67074
2.07	7.6691
2.08	7.66811
2.09	7.6566
2.1	7.63851
2.11	7.63916
2.12	7.64212
2.13	7.62699
2.14	7.62897
2.15	7.6168
2.16	7.59837
2.17	7.60068
2.18	7.60166
2.19	7.59443
2.2	7.5816
2.21	7.57272
2.22	7.57272
2.23	7.57272
2.24	7.56778
2.25	7.5635
2.26	7.55199
2.27	7.55989
2.28	7.551
2.29	7.54048
2.3	7.51975
2.31	7.52699
2.32	7.52337
2.33	7.51054
2.34	7.51054
2.35	7.50265
2.36	7.4783
2.37	7.47567
2.38	7.47929
2.39	7.46646
2.4	7.46383
2.41	7.45692
2.42	7.45495
2.43	7.45265
2.44	7.45758
2.45	7.43587
2.46	7.42238
2.47	7.41186
2.48	7.41416
2.49	7.40922
2.5	7.40758
2.51	7.39343
2.52	7.39113
2.53	7.37797
2.54	7.37403
2.55	7.36087
2.56	7.34935
2.57	7.35593
2.58	7.33587
2.59	7.32106
2.6	7.31745
2.61	7.32106
2.62	7.31547
2.63	7.28554
2.64	7.27698
2.65	7.28389
2.66	7.29113
2.67	7.28126
2.68	7.27008
2.69	7.26975
2.7	7.26547
2.71	7.2408
2.72	7.24244
2.73	7.24113
2.74	7.23981
2.75	7.24836
2.76	7.22238
2.77	7.21711
2.78	7.20889
2.79	7.21284
2.8	7.20396
2.81	7.18192
2.82	7.17632
2.83	7.17501
2.84	7.16645
2.85	7.16053
2.86	7.16678
2.87	7.14836
2.88	7.12895
2.89	7.13488
2.9	7.1431
2.91	7.13191
2.92	7.12073
2.93	7.11284
2.94	7.10099
2.95	7.1033
2.96	7.09639
2.97	7.08257
2.98	7.09244
2.99	7.07632
3	7.07303
3.01	7.06908
3.02	7.05165
3.03	7.06086
3.04	7.05428
3.05	7.04902
3.06	7.04277
3.07	7.02764
3.08	7.03685
3.09	7.03487
3.1	7.01546
3.11	7.0079
3.12	6.9977
3.13	6.98619
3.14	6.98224
3.15	6.98059
3.16	6.96974
3.17	6.96842
3.18	6.96283
3.19	6.95559
3.2	6.95329
3.21	6.95494
3.22	6.95592
3.23	6.9454
3.24	6.92994
3.25	6.93487
3.26	6.93454
3.27	6.91711
3.28	6.91678
3.29	6.9079
3.3	6.89704
3.31	6.90165
3.32	6.88651
3.33	6.88586
3.34	6.89441
3.35	6.87928
3.36	6.87039
3.37	6.85855
3.38	6.8602
3.39	6.84638
3.4	6.84835
3.41	6.8296
3.42	6.82566
3.43	6.82697
3.44	6.82533
3.45	6.81612
3.46	6.82566
3.47	6.82302
3.48	6.80066
3.49	6.78914
3.5	6.7977
3.51	6.79112
3.52	6.77269
3.53	6.77927
3.54	6.77631
3.55	6.77434
3.56	6.7569
3.57	6.7523
3.58	6.75658
3.59	6.7444
3.6	6.75131
3.61	6.73355
3.62	6.71809
3.63	6.7023
3.64	6.71217
3.65	6.70625
3.66	6.70855
3.67	6.70526
3.68	6.69736
3.69	6.68585
3.7	6.68881
3.71	6.67861
3.72	6.67598
3.73	6.66282
3.74	6.65723
3.75	6.6421
3.76	6.64802
3.77	6.63651
3.78	6.63453
3.79	6.63256
3.8	6.63157
3.81	6.6273
3.82	6.62532
3.83	6.62203
3.84	6.60789
3.85	6.60032
3.86	6.58651
3.87	6.58058
3.88	6.57762
3.89	6.57697
3.9	6.57368
3.91	6.56249
3.92	6.57532
3.93	6.54966
3.94	6.56085
3.95	6.54506
3.96	6.53749
3.97	6.52762
3.98	6.52071
3.99	6.51545
4	6.51249
4.01	6.51808
4.02	6.5046
4.03	6.50427
4.04	6.50131
4.05	6.49802
4.06	6.47038
4.07	6.47302
4.08	6.48288
4.09	6.47663
4.1	6.46677
4.11	6.46742
4.12	6.46051
4.13	6.44867
4.14	6.44111
4.15	6.44801
4.16	6.43124
4.17	6.424
4.18	6.42137
4.19	6.40755
4.2	6.41545
4.21	6.42005
4.22	6.40032
4.23	6.40459
4.24	6.3865
4.25	6.39045
4.26	6.38387
4.27	6.3865
4.28	6.37564
4.29	6.37005
4.3	6.36413
4.31	6.36117
4.32	6.35788
4.33	6.34571
4.34	6.349
4.35	6.33321
4.36	6.33946
4.37	6.33485
4.38	6.32301
4.39	6.31314
4.4	6.31939
4.41	6.31512
4.42	6.30821
4.43	6.31347
4.44	6.29834
4.45	6.29702
4.46	6.29341
4.47	6.28123
4.48	6.27564
4.49	6.28156
4.5	6.26906
4.51	6.26281
4.52	6.25919
4.53	6.25459
4.54	6.24702
4.55	6.25229
4.56	6.24604
4.57	6.24472
4.58	6.23682
4.59	6.22761
4.6	6.22202
4.61	6.21643
4.62	6.22301
4.63	6.21709
4.64	6.21676
4.65	6.19965
4.66	6.19801
4.67	6.19472
4.68	6.19077
4.69	6.17992
4.7	6.1809
4.71	6.18978
4.72	6.18452
4.73	6.16544
4.74	6.16906
4.75	6.14505
4.76	6.15689
4.77	6.15195
4.78	6.14866
4.79	6.14537
4.8	6.14537
4.81	6.13287
4.82	6.12991
4.83	6.1388
4.84	6.13649
4.85	6.12366
4.86	6.12301
4.87	6.10919
4.88	6.10656
4.89	6.11577
4.9	6.11182
4.91	6.09932
4.92	6.09011
4.93	6.07925
4.94	6.07629
4.95	6.07498
4.96	6.08057
4.97	6.07136
4.98	6.06149
4.99	6.05623
5	6.04735
5.01	6.04438
5.02	6.03057
5.03	6.03781
5.04	6.04406
5.05	6.03419
5.06	6.02498
5.07	6.01708
5.08	6.01215
5.09	6.01248
5.1	6.00327
5.11	6.00655
5.12	5.998
5.13	5.99636
5.14	5.98682
5.15	5.99702
5.16	5.98912
5.17	5.9832
5.18	5.97399
5.19	5.97103
5.2	5.96905
5.21	5.96511
5.22	5.95524
5.23	5.9605
5.24	5.95557
5.25	5.95787
5.26	5.95261
5.27	5.93649
5.28	5.94241
5.29	5.93254
5.3	5.92761
5.31	5.93517
5.32	5.92761
5.33	5.92366
5.34	5.91313
5.35	5.91642
5.36	5.90721
5.37	5.89635
5.38	5.89471
5.39	5.89175
5.4	5.87497
5.41	5.89274
5.42	5.88385
5.43	5.88583
5.44	5.87399
5.45	5.87497
5.46	5.87102
5.47	5.85195
5.48	5.86247
5.49	5.86708
5.5	5.8628
5.51	5.8651
5.52	5.85622
5.53	5.84208
5.54	5.83319
5.55	5.82826
5.56	5.83385
5.57	5.82596
5.58	5.8253
5.59	5.82859
5.6	5.81839
5.61	5.81675
5.62	5.81576
5.63	5.81938
5.64	5.81115
5.65	5.79767
5.66	5.80688
5.67	5.80754
5.68	5.79997
5.69	5.79635
5.7	5.79438
5.71	5.79043
5.72	5.77925
5.73	5.76609
5.74	5.77497
5.75	5.76905
5.76	5.76872
5.77	5.75753
5.78	5.75128
5.79	5.75786
5.8	5.75655
5.81	5.74405
5.82	5.74734
5.83	5.73747
5.84	5.72826
5.85	5.74076
5.86	5.73155
5.87	5.72267
5.88	5.72299
5.89	5.71345
5.9	5.7072
5.91	5.71707
5.92	5.71148
5.93	5.71576
5.94	5.70852
5.95	5.70523
5.96	5.69569
5.97	5.69141
5.98	5.68615
5.99	5.69076
6	5.68352
6.01	5.68714
6.02	5.6822
6.03	5.67102
6.04	5.66806
6.05	5.66641
6.06	5.65622
6.07	5.66707
6.08	5.66082
6.09	5.64865
6.1	5.64339
6.11	5.6447
6.12	5.64964
6.13	5.63648
6.14	5.64372
6.15	5.64372
6.16	5.63187
6.17	5.63714
6.18	5.62793
6.19	5.62365
6.2	5.62628
6.21	5.61937
6.22	5.60325
6.23	5.59437
6.24	5.59667
6.25	5.59733
6.26	5.60523
6.27	5.59799
6.28	5.60062
6.29	5.58615
6.3	5.59141
6.31	5.58483
6.32	5.58516
6.33	5.58812
6.34	5.58088
6.35	5.5697
6.36	5.56871
6.37	5.58187
6.38	5.57003
6.39	5.57332
6.4	5.57233
6.41	5.55259
6.42	5.55753
6.43	5.55062
6.44	5.55325
6.45	5.54733
6.46	5.55292
6.47	5.55588
6.48	5.54865
6.49	5.53713
6.5	5.53319
6.51	5.52069
6.52	5.51838
6.53	5.51937
6.54	5.52069
6.55	5.5095
6.56	5.49832
6.57	5.50819
6.58	5.51082
6.59	5.51608
6.6	5.5049
6.61	5.50062
6.62	5.49108
6.63	5.49667
6.64	5.49272
6.65	5.48976
6.66	5.48022
6.67	5.49404
6.68	5.48549
6.69	5.48253
6.7	5.47068
6.71	5.46904
6.72	5.48483
6.73	5.46246
6.74	5.46904
6.75	5.4697
6.76	5.4595
6.77	5.44601
6.78	5.46542
6.79	5.45522
6.8	5.44799
6.81	5.4493
6.82	5.45193
6.83	5.45128
6.84	5.44305
6.85	5.43549
6.86	5.44568
6.87	5.43746
6.88	5.43549
6.89	5.44338
6.9	5.43417
6.91	5.42693
6.92	5.42726
6.93	5.42627
6.94	5.42266
6.95	5.42068
6.96	5.41345
6.97	5.41016
6.98	5.42233
6.99	5.41312
7	5.41443
7.01	5.4243
7.02	5.41575
7.03	5.39864
7.04	5.40654
7.05	5.3993
7.06	5.39009
7.07	5.37726
7.08	5.38384
7.09	5.38548
7.1	5.37331
7.11	5.38877
7.12	5.39469
7.13	5.37594
7.14	5.37167
7.15	5.36443
7.16	5.36114
7.17	5.35555
7.18	5.36311
7.19	5.36937
7.2	5.3664
7.21	5.36279
7.22	5.34469
7.23	5.34239
7.24	5.34864
7.25	5.34173
7.26	5.34568
7.27	5.33318
7.28	5.33713
7.29	5.34601
7.3	5.33417
7.31	5.33713
7.32	5.34469
7.33	5.33252
7.34	5.32101
7.35	5.31476
7.36	5.3266
7.37	5.33318
7.38	5.32232
7.39	5.31213
7.4	5.32002
7.41	5.3118
7.42	5.30193
7.43	5.30884
7.44	5.31081
7.45	5.30292
7.46	5.29403
7.47	5.29798
7.48	5.28515
7.49	5.29338
7.5	5.28482
7.51	5.29765
7.52	5.28647
7.53	5.27824
7.54	5.27331
7.55	5.26607
7.56	5.27134
7.57	5.26081
7.58	5.26015
7.59	5.26739
7.6	5.27232
7.61	5.26903
7.62	5.25752
7.63	5.26278
7.64	5.26838
7.65	5.2664
7.66	5.26015
7.67	5.26081
7.68	5.25587
7.69	5.25818
7.7	5.2618
7.71	5.24469
7.72	5.24831
7.73	5.24831
7.74	5.24206
7.75	5.23976
7.76	5.23482
7.77	5.23416
7.78	5.23318
7.79	5.2368
7.8	5.24173
7.81	5.23581
7.82	5.22397
7.83	5.2289
7.84	5.2289
7.85	5.23219
7.86	5.23647
7.87	5.21114
7.88	5.21936
7.89	5.21739
7.9	5.21311
7.91	5.21706
7.92	5.20949
7.93	5.20719
7.94	5.2016
7.95	5.20489
7.96	5.19765
7.97	5.20982
7.98	5.20291
7.99	5.19206
8	5.19666
8.01	5.18975
8.02	5.18285
8.03	5.18153
8.04	5.18054
8.05	5.18778
8.06	5.17331
8.07	5.17627
8.08	5.17627
8.09	5.16706
8.1	5.16771
8.11	5.16903
8.12	5.16804
8.13	5.1687
8.14	5.16442
8.15	5.15817
8.16	5.16574
8.17	5.17035
8.18	5.16311
8.19	5.15357
8.2	5.15488
8.21	5.16146
8.22	5.16114
8.23	5.15258
8.24	5.1516
8.25	5.14206
8.26	5.14896
8.27	5.1437
8.28	5.13712
8.29	5.15587
8.3	5.14863
8.31	5.13877
8.32	5.1391
8.33	5.13219
8.34	5.12956
8.35	5.13186
8.36	5.13581
8.37	5.13581
8.38	5.13482
8.39	5.13844
8.4	5.13581
8.41	5.12462
8.42	5.12166
8.43	5.12462
8.44	5.1187
8.45	5.12166
8.46	5.12002
8.47	5.12034
8.48	5.12067
8.49	5.11574
8.5	5.11015
8.51	5.11212
8.52	5.12034
8.53	5.11804
8.54	5.09798
8.55	5.08219
8.56	5.09896
8.57	5.10258
8.58	5.1108
8.59	5.10028
8.6	5.08909
8.61	5.09271
8.62	5.09501
8.63	5.09995
8.64	5.09567
8.65	5.09008
8.66	5.08284
8.67	5.10291
8.68	5.10094
8.69	5.09567
8.7	5.08909
8.71	5.09765
8.72	5.09173
8.73	5.09699
8.74	5.09436
8.75	5.08054
8.76	5.07725
8.77	5.07297
8.78	5.08646
8.79	5.08153
8.8	5.07725
8.81	5.0664
8.82	5.06969
8.83	5.06705
8.84	5.06738
8.85	5.07067
8.86	5.06212
8.87	5.06705
8.88	5.06475
8.89	5.06015
8.9	5.05587
8.91	5.0562
8.92	5.05357
8.93	5.05686
8.94	5.05883
8.95	5.04863
8.96	5.046
8.97	5.05192
8.98	5.04633
8.99	5.0562
9	5.04666
9.01	5.04534
9.02	5.04271
9.03	5.05291
9.04	5.04534
9.05	5.04271
9.06	5.0335
9.07	5.04633
9.08	5.03547
9.09	5.0312
9.1	5.0312
9.11	5.03975
9.12	5.02955
9.13	5.02922
9.14	5.02593
9.15	5.03021
9.16	5.02922
9.17	5.02955
9.18	5.0312
9.19	5.02429
9.2	5.01409
9.21	5.01738
9.22	5.01903
9.23	5.01541
9.24	5.02166
9.25	5.00685
9.26	5.0108
9.27	5.01837
9.28	5.01245
9.29	5.00883
9.3	5.0062
9.31	5.00258
9.32	5.01245
9.33	5.00455
9.34	5.00389
9.35	5.00126
9.36	5.00718
9.37	5.00949
9.38	4.98745
9.39	4.99402
9.4	4.98745
9.41	4.98481
9.42	4.99468
9.43	4.99534
9.44	4.99106
9.45	4.98942
9.46	4.99074
9.47	4.98087
9.48	4.9835
9.49	4.98712
9.5	4.98284
9.51	4.99172
9.52	4.97955
9.53	4.99106
9.54	4.98416
9.55	4.97988
9.56	4.97527
9.57	4.97363
9.58	4.97626
9.59	4.98021
9.6	4.96508
9.61	4.97527
9.62	4.97527
9.63	4.9733
9.64	4.971
9.65	4.96606
9.66	4.9687
9.67	4.96343
9.68	4.95718
9.69	4.96771
9.7	4.96705
9.71	4.96047
9.72	4.95159
9.73	4.95027
9.74	4.95291
9.75	4.94337
9.76	4.94633
9.77	4.95192
9.78	4.95488
9.79	4.95718
9.8	4.95817
9.81	4.95652
9.82	4.94797
9.83	4.94435
9.84	4.96014
9.85	4.95389
9.86	4.95027
9.87	4.94665
9.88	4.94797
9.89	4.94863
9.9	4.95784
9.91	4.95784
9.92	4.95323
9.93	4.94534
9.94	4.95356
9.95	4.9381
9.96	4.94797
9.97	4.93646
9.98	4.94797
9.99	4.9358
10	4.95159
10.01	4.9506
10.02	4.92758
10.03	4.92922
10.04	4.93152
10.05	4.94337
10.06	4.946
10.07	4.93021
10.08	4.93975
10.09	4.93087
10.1	4.93021
10.11	4.92725
10.12	4.93021
10.13	4.93481
10.14	4.92165
10.15	4.92461
10.16	4.92659
10.17	4.9335
10.18	4.921
10.19	4.92856
10.2	4.92429
10.21	4.91836
10.22	4.91442
10.23	4.9131
10.24	4.92198
10.25	4.92198
10.26	4.921
10.27	4.91606
10.28	4.92198
10.29	4.90915
10.3	4.9029
10.31	4.89764
10.32	4.896
10.33	4.90356
10.34	4.90948
10.35	4.90027
10.36	4.90323
10.37	4.91211
10.38	4.90554
10.39	4.90225
10.4	4.89271
10.41	4.89896
10.42	4.90257
10.43	4.9029
10.44	4.89534
10.45	4.90389
10.46	4.89435
10.47	4.8983
10.48	4.89271
10.49	4.89567
10.5	4.88876
10.51	4.90192
10.52	4.9006
10.53	4.88843
10.54	4.88909
10.55	4.88448
10.56	4.88975
10.57	4.89402
10.58	4.87692
10.59	4.89007
10.6	4.88843
10.61	4.88909
10.62	4.87889
10.63	4.88119
10.64	4.88053
10.65	4.88711
10.66	4.88053
10.67	4.88053
10.68	4.88185
10.69	4.87889
10.7	4.87922
10.71	4.87593
10.72	4.88185
10.73	4.87724
10.74	4.87724
10.75	4.88613
10.76	4.88152
10.77	4.88547
10.78	4.88086
10.79	4.87264
10.8	4.87659
10.81	4.88284
10.82	4.87593
10.83	4.87626
10.84	4.8756
10.85	4.86705
10.86	4.88021
10.87	4.86836
10.88	4.87264
10.89	4.87165
10.9	4.86771
10.91	4.87823
10.92	4.86902
10.93	4.87231
10.94	4.86869
10.95	4.86343
10.96	4.87067
10.97	4.8779
10.98	4.86047
10.99	4.86343
11	4.87198
11.01	4.86376
11.02	4.86573
11.03	4.84994
11.04	4.85455
11.05	4.8506
11.06	4.84961
11.07	4.8483
11.08	4.8654
11.09	4.85422
11.1	4.8404
11.11	4.84698
11.12	4.84336
11.13	4.84238
11.14	4.85751
11.15	4.8506
11.16	4.87198
11.17	4.84501
11.18	4.82626
11.19	4.84402
11.2	4.84501
11.21	4.84501
11.22	4.83876
11.23	4.84863
11.24	4.8358
11.25	4.84073
11.26	4.84172
11.27	4.84797
11.28	4.84106
11.29	4.83777
11.3	4.84402
11.31	4.8427
11.32	4.82066
11.33	4.82494
11.34	4.83514
11.35	4.83613
11.36	4.83251
11.37	4.84567
11.38	4.82264
11.39	4.83876
11.4	4.83448
11.41	4.83711
11.42	4.82362
11.43	4.82922
11.44	4.82757
11.45	4.84106
11.46	4.84172
11.47	4.8302
11.48	4.83086
11.49	4.81935
11.5	4.83119
11.51	4.83415
11.52	4.83185
11.53	4.8256
11.54	4.8279
11.55	4.82264
11.56	4.82395
11.57	4.8358
11.58	4.82724
11.59	4.83185
11.6	4.82955
11.61	4.82757
11.62	4.83547
11.63	4.82823
11.64	4.82264
11.65	4.82362
11.66	4.82757
11.67	4.83053
11.68	4.81507
11.69	4.82428
11.7	4.82264
11.71	4.81573
11.72	4.81935
11.73	4.82428
11.74	4.82034
11.75	4.79632
11.76	4.8108
11.77	4.81277
11.78	4.81737
11.79	4.81211
11.8	4.80323
11.81	4.81803
11.82	4.8108
11.83	4.80948
11.84	4.80816
11.85	4.80948
11.86	4.79797
11.87	4.7983
11.88	4.81047
11.89	4.80915
11.9	4.81441
11.91	4.80718
11.92	4.80783
11.93	4.8108
11.94	4.8029
11.95	4.80487
11.96	4.78678
11.97	4.79928
11.98	4.80718
11.99	4.80619
12	4.81112
12.01	4.79533
12.02	4.81178
12.03	4.81277
12.04	4.80487
12.05	4.7983
12.06	4.79862
12.07	4.81047
12.08	4.79468
12.09	4.80191
12.1	4.80389
12.11	4.80981
12.12	4.80487
12.13	4.79698
12.14	4.77987
12.15	4.78547
12.16	4.79007
12.17	4.79599
12.18	4.79764
12.19	4.80553
12.2	4.79336
12.21	4.78843
12.22	4.80191
12.23	4.80257
12.24	4.79566
12.25	4.7881
12.26	4.78843
12.27	4.79632
12.28	4.79764
12.29	4.78448
12.3	4.79303
12.31	4.7983
12.32	4.79895
12.33	4.78777
12.34	4.78941
12.35	4.79566
12.36	4.7802
12.37	4.78316
12.38	4.79632
12.39	4.78316
12.4	4.78415
12.41	4.78908
12.42	4.8006
12.43	4.78547
12.44	4.7881
12.45	4.78481
12.46	4.7802
12.47	4.78481
12.48	4.78547
12.49	4.78744
12.5	4.78119
12.51	4.78316
12.52	4.77724
12.53	4.78382
12.54	4.78349
12.55	4.7802
12.56	4.78415
12.57	4.7927
12.58	4.78547
12.59	4.77033
12.6	4.77922
12.61	4.77395
12.62	4.78349
12.63	4.78316
12.64	4.78218
12.65	4.77428
12.66	4.77395
12.67	4.77395
12.68	4.77494
12.69	4.77494
12.7	4.77395
12.71	4.76869
12.72	4.77264
12.73	4.77
12.74	4.77461
12.75	4.77428
12.76	4.77329
12.77	4.77428
12.78	4.76902
12.79	4.77593
12.8	4.7654
12.81	4.76441
12.82	4.76145
12.83	4.76803
12.84	4.77625
12.85	4.77231
12.86	4.7631
12.87	4.7654
12.88	4.76047
12.89	4.76737
12.9	4.77691
12.91	4.77297
12.92	4.77395
12.93	4.76672
12.94	4.77724
12.95	4.76902
12.96	4.77395
12.97	4.77757
12.98	4.76507
12.99	4.75981
13	4.76573
13.01	4.75816
13.02	4.7677
13.03	4.77198
13.04	4.77198
13.05	4.76672
13.06	4.77066
13.07	4.7677
13.08	4.76704
13.09	4.77099
13.1	4.76803
13.11	4.75356
13.12	4.7575
13.13	4.77231
13.14	4.76573
13.15	4.75849
13.16	4.76474
13.17	4.7506
13.18	4.74369
13.19	4.74665
13.2	4.7552
13.21	4.77198
13.22	4.76277
13.23	4.75454
13.24	4.7404
13.25	4.75158
13.26	4.75389
13.27	4.75882
13.28	4.75718
13.29	4.74533
13.3	4.75191
13.31	4.75652
13.32	4.7506
13.33	4.7575
13.34	4.7506
13.35	4.74698
13.36	4.74764
13.37	4.74994
13.38	4.74731
13.39	4.74468
13.4	4.74928
13.41	4.7506
13.42	4.75882
13.43	4.74402
13.44	4.74073
13.45	4.75191
13.46	4.75323
13.47	4.7529
13.48	4.7381
13.49	4.73612
13.5	4.75191
13.51	4.74468
13.52	4.74764
13.53	4.7506
13.54	4.75652
13.55	4.75816
13.56	4.75323
13.57	4.76079
13.58	4.75586
13.59	4.74468
13.6	4.75487
13.61	4.74796
13.62	4.74599
13.63	4.76047
13.64	4.75454
13.65	4.75586
13.66	4.74928
13.67	4.74533
13.68	4.74698
13.69	4.74599
13.7	4.74764
13.71	4.76079
13.72	4.74862
13.73	4.74862
13.74	4.74369
13.75	4.74599
