"BIO-KINE ASCII FILE"
"_COMMENT"	"MOS-500 Spectrometer"
"_COMMENT"	"Kinetics measurement"
"_COMMENT"	"Y Unit : Volt,  X Unit : s"
"_COMMENT"	"Excitation wavelength : 380 nm"
"_COMMENT"	"Fentes bandwidth =  1 nm"
"_COMMENT"	"HV= 750V"
"_COMMENT"	"Timebase  1 =  .01 s   3001 pts"
"_SFM"	"SFM-400 /S  Advanced mode"
"_SFM"	"Ratio : S1: 2.5, S2: 0, S3: 0, S4: 1"
"_SFM"	"Content : S1: , S2: , S3: , S4:"
"_SFM"	"Concentration : S1: , S2: , S3: , S4:"
"_SFM"	"Total volume : 209 µl  Flow : 3.5 mL/s"
"_SFM"	"Acquisition start :  10 ms before stop"
"_SFM"	"cuve=FC-15, s1=10 ml , s2=10 ml , s3=10 ml , s4=1.9 ml"
"_UNITX"	"s"
"_UNITY"	"Volt"
"_DELTAX"	0
"_DATA"
1e-300	6.55822
0.01	7.08027
0.02	7.34705
0.03	7.38225
0.04	7.37896
0.05	7.38554
0.06	7.38488
0.07	7.39804
0.08	7.38916
0.09	7.39936
0.1	7.40758
0.11	7.40232
0.12	7.38883
0.13	7.38488
0.14	7.38488
0.15	7.38718
0.16	7.37896
0.17	7.37699
0.18	7.40001
0.19	7.38126
0.2	7.37501
0.21	7.39212
0.22	7.36975
0.23	7.36416
0.24	7.36778
0.25	7.35791
0.26	7.36021
0.27	7.35133
0.28	7.34179
0.29	7.35922
0.3	7.34771
0.31	7.3362
0.32	7.34442
0.33	7.35692
0.34	7.32468
0.35	7.31646
0.36	7.32139
0.37	7.32995
0.38	7.30198
0.39	7.30856
0.4	7.30495
0.41	7.29508
0.42	7.29837
0.43	7.28652
0.44	7.27337
0.45	7.28126
0.46	7.2931
0.47	7.27567
0.48	7.27896
0.49	7.25231
0.5	7.25396
0.51	7.2579
0.52	7.25396
0.53	7.24869
0.54	7.22665
0.55	7.22402
0.56	7.21744
0.57	7.21777
0.58	7.20988
0.59	7.20494
0.6	7.19672
0.61	7.19277
0.62	7.20001
0.63	7.18915
0.64	7.1829
0.65	7.18718
0.66	7.18027
0.67	7.16547
0.68	7.14705
0.69	7.14178
0.7	7.15198
0.71	7.14573
0.72	7.14803
0.73	7.11514
0.74	7.1181
0.75	7.12402
0.76	7.11152
0.77	7.12172
0.78	7.11612
0.79	7.08652
0.8	7.08882
0.81	7.08553
0.82	7.06514
0.83	7.07533
0.84	7.07435
0.85	7.08652
0.86	7.05889
0.87	7.0625
0.88	7.05066
0.89	7.05527
0.9	7.06678
0.91	7.05033
0.92	7.0431
0.93	7.0102
0.94	7.00691
0.95	7.00987
0.96	7.02139
0.97	7.01481
0.98	7.01349
0.99	6.99638
1	6.99869
1.01	6.98717
1.02	6.98125
1.03	6.97994
1.04	6.98684
1.05	6.98454
1.06	6.9648
1.07	6.93948
1.08	6.95527
1.09	6.93882
1.1	6.93684
1.11	6.94967
1.12	6.93421
1.13	6.92303
1.14	6.92566
1.15	6.93092
1.16	6.91678
1.17	6.89572
1.18	6.87599
1.19	6.88849
1.2	6.88388
1.21	6.89013
1.22	6.87303
1.23	6.87007
1.24	6.87664
1.25	6.86118
1.26	6.85625
1.27	6.8477
1.28	6.84704
1.29	6.84408
1.3	6.83783
1.31	6.82467
1.32	6.81776
1.33	6.79671
1.34	6.78223
1.35	6.80723
1.36	6.80098
1.37	6.79375
1.38	6.78717
1.39	6.77105
1.4	6.76019
1.41	6.77368
1.42	6.76776
1.43	6.75987
1.44	6.75362
1.45	6.7523
1.46	6.74671
1.47	6.73914
1.48	6.7148
1.49	6.725
1.5	6.74506
1.51	6.72335
1.52	6.71052
1.53	6.71052
1.54	6.71579
1.55	6.70065
1.56	6.69769
1.57	6.69111
1.58	6.68453
1.59	6.67236
1.6	6.67499
1.61	6.66776
1.62	6.66545
1.63	6.66381
1.64	6.64703
1.65	6.64407
1.66	6.63881
1.67	6.64736
1.68	6.63585
1.69	6.63651
1.7	6.6171
1.71	6.59703
1.72	6.62499
1.73	6.59506
1.74	6.58651
1.75	6.58387
1.76	6.58585
1.77	6.59308
1.78	6.5819
1.79	6.57664
1.8	6.56545
1.81	6.56611
1.82	6.56118
1.83	6.5569
1.84	6.54111
1.85	6.54078
1.86	6.53585
1.87	6.53453
1.88	6.51874
1.89	6.51381
1.9	6.49933
1.91	6.52499
1.92	6.52894
1.93	6.50723
1.94	6.50624
1.95	6.51742
1.96	6.50131
1.97	6.47696
1.98	6.4615
1.99	6.47137
2	6.4638
2.01	6.46644
2.02	6.45163
2.03	6.44111
2.04	6.45394
2.05	6.45032
2.06	6.45328
2.07	6.43157
2.08	6.42334
2.09	6.41117
2.1	6.4092
2.11	6.40953
2.12	6.39768
2.13	6.39538
2.14	6.39143
2.15	6.39571
2.16	6.40624
2.17	6.39242
2.18	6.36939
2.19	6.36742
2.2	6.38124
2.21	6.37729
2.22	6.36018
2.23	6.35064
2.24	6.35788
2.25	6.35525
2.26	6.36314
2.27	6.33255
2.28	6.31577
2.29	6.31873
2.3	6.29308
2.31	6.3036
2.32	6.31775
2.33	6.31248
2.34	6.30558
2.35	6.30591
2.36	6.29077
2.37	6.27235
2.38	6.27235
2.39	6.27433
2.4	6.28189
2.41	6.26347
2.42	6.25229
2.43	6.25492
2.44	6.24965
2.45	6.24307
2.46	6.24538
2.47	6.20426
2.48	6.23189
2.49	6.24242
2.5	6.21709
2.51	6.22235
2.52	6.21478
2.53	6.19998
2.54	6.21446
2.55	6.19143
2.56	6.18353
2.57	6.18617
2.58	6.18057
2.59	6.18847
2.6	6.18617
2.61	6.16445
2.62	6.15919
2.63	6.15886
2.64	6.14899
2.65	6.13518
2.66	6.14636
2.67	6.13156
2.68	6.13945
2.69	6.11873
2.7	6.1184
2.71	6.12564
2.72	6.12268
2.73	6.12169
2.74	6.1059
2.75	6.08814
2.76	6.09768
2.77	6.08518
2.78	6.08781
2.79	6.08583
2.8	6.06873
2.81	6.0582
2.82	6.07925
2.83	6.06873
2.84	6.04932
2.85	6.04702
2.86	6.02991
2.87	6.05458
2.88	6.0309
2.89	6.02531
2.9	6.04537
2.91	6.02234
2.92	6.01182
2.93	6.01248
2.94	6.01741
2.95	6.00984
2.96	6.00787
2.97	5.9878
2.98	5.98715
2.99	5.98616
3	5.99702
3.01	5.98649
3.02	5.97761
3.03	5.97794
3.04	5.95557
3.05	5.94932
3.06	5.9434
3.07	5.94833
3.08	5.95096
3.09	5.93846
3.1	5.9207
3.11	5.9151
3.12	5.91083
3.13	5.92234
3.14	5.92432
3.15	5.90951
3.16	5.91708
3.17	5.89438
3.18	5.89241
3.19	5.89767
3.2	5.88451
3.21	5.89109
3.22	5.89175
3.23	5.873
3.24	5.87168
3.25	5.873
3.26	5.85359
3.27	5.86774
3.28	5.85491
3.29	5.85129
3.3	5.85129
3.31	5.8276
3.32	5.83648
3.33	5.83944
3.34	5.82464
3.35	5.82563
3.36	5.81971
3.37	5.81708
3.38	5.82267
3.39	5.81247
3.4	5.81379
3.41	5.80819
3.42	5.78681
3.43	5.78681
3.44	5.78286
3.45	5.77826
3.46	5.78484
3.47	5.7776
3.48	5.76115
3.49	5.75622
3.5	5.75753
3.51	5.76905
3.52	5.75359
3.53	5.73681
3.54	5.73747
3.55	5.72859
3.56	5.72135
3.57	5.72464
3.58	5.72628
3.59	5.72036
3.6	5.72234
3.61	5.70326
3.62	5.70984
3.63	5.71707
3.64	5.69405
3.65	5.68385
3.66	5.70457
3.67	5.69306
3.68	5.66773
3.69	5.67595
3.7	5.67957
3.71	5.66905
3.72	5.65589
3.73	5.66115
3.74	5.66674
3.75	5.64766
3.76	5.66279
3.77	5.65786
3.78	5.64372
3.79	5.63516
3.8	5.61773
3.81	5.62595
3.82	5.63121
3.83	5.61378
3.84	5.6151
3.85	5.62793
3.86	5.60852
3.87	5.61345
3.88	5.59569
3.89	5.5845
3.9	5.58746
3.91	5.597
3.92	5.58154
3.93	5.58417
3.94	5.57266
3.95	5.572
3.96	5.5595
3.97	5.55227
3.98	5.56444
3.99	5.56806
4	5.55555
4.01	5.54898
4.02	5.5493
4.03	5.53549
4.04	5.54503
4.05	5.53713
4.06	5.53713
4.07	5.52661
4.08	5.51937
4.09	5.51838
4.1	5.50983
4.11	5.49338
4.12	5.50391
4.13	5.50884
4.14	5.49042
4.15	5.50819
4.16	5.49865
4.17	5.49733
4.18	5.48088
4.19	5.48022
4.2	5.47332
4.21	5.46904
4.22	5.46443
4.23	5.47035
4.24	5.46575
4.25	5.45983
4.26	5.46114
4.27	5.45555
4.28	5.44009
4.29	5.44601
4.3	5.45193
4.31	5.43976
4.32	5.4197
4.33	5.42101
4.34	5.41706
4.35	5.41805
4.36	5.41805
4.37	5.41016
4.38	5.41509
4.39	5.40062
4.4	5.40621
4.41	5.40292
4.42	5.39535
4.43	5.40621
4.44	5.39239
4.45	5.36904
4.46	5.36279
4.47	5.37956
4.48	5.38154
4.49	5.3766
4.5	5.37923
4.51	5.35621
4.52	5.33647
4.53	5.34601
4.54	5.35818
4.55	5.35456
4.56	5.3516
4.57	5.34469
4.58	5.32101
4.59	5.32561
4.6	5.33384
4.61	5.31542
4.62	5.31344
4.63	5.31377
4.64	5.30917
4.65	5.29667
4.66	5.30884
4.67	5.30818
4.68	5.28976
4.69	5.28713
4.7	5.28318
4.71	5.28252
4.72	5.26607
4.73	5.27693
4.74	5.27397
4.75	5.26903
4.76	5.27528
4.77	5.27101
4.78	5.2664
4.79	5.26969
4.8	5.26805
4.81	5.2618
4.82	5.25785
4.83	5.25226
4.84	5.24666
4.85	5.24699
4.86	5.23943
4.87	5.22101
4.88	5.23745
4.89	5.24337
4.9	5.23811
4.91	5.21443
4.92	5.21179
4.93	5.22331
4.94	5.20489
4.95	5.21344
4.96	5.2187
4.97	5.22166
4.98	5.19765
4.99	5.19897
5	5.20653
5.01	5.18646
5.02	5.1766
5.03	5.19206
5.04	5.18318
5.05	5.17725
5.06	5.17989
5.07	5.1789
5.08	5.16475
5.09	5.15916
5.1	5.16377
5.11	5.14633
5.12	5.15291
5.13	5.1539
5.14	5.16508
5.15	5.15127
5.16	5.15521
5.17	5.14008
5.18	5.14929
5.19	5.12824
5.2	5.12331
5.21	5.12561
5.22	5.11969
5.23	5.1335
5.24	5.121
5.25	5.12429
5.26	5.10521
5.27	5.09271
5.28	5.09633
5.29	5.096
5.3	5.09041
5.31	5.09205
5.32	5.10291
5.33	5.07626
5.34	5.0812
5.35	5.08646
5.36	5.07922
5.37	5.07297
5.38	5.06442
5.39	5.05028
5.4	5.06278
5.41	5.071
5.42	5.07561
5.43	5.05817
5.44	5.06311
5.45	5.05028
5.46	5.05258
5.47	5.05357
5.48	5.04666
5.49	5.02692
5.5	5.02166
5.51	5.02955
5.52	5.03811
5.53	5.04139
5.54	5.02889
5.55	5.02626
5.56	5.02824
5.57	5.01738
5.58	5.01047
5.59	5.02429
5.6	5.01014
5.61	5.01113
5.62	5.01047
5.63	5.01705
5.64	4.99501
5.65	4.99731
5.66	4.99041
5.67	4.98416
5.68	4.98514
5.69	4.99205
5.7	4.98646
5.71	4.96672
5.72	4.9881
5.73	4.96606
5.74	4.95225
5.75	4.95554
5.76	4.95948
5.77	4.9608
5.78	4.97659
5.79	4.95389
5.8	4.95389
5.81	4.94731
5.82	4.94205
5.83	4.95192
5.84	4.94369
5.85	4.946
5.86	4.9381
5.87	4.94369
5.88	4.93251
5.89	4.9335
5.9	4.91573
5.91	4.92856
5.92	4.92297
5.93	4.92034
5.94	4.91639
5.95	4.90915
5.96	4.91475
5.97	4.91442
5.98	4.90915
5.99	4.9006
6	4.90948
6.01	4.89632
6.02	4.89632
6.03	4.89402
6.04	4.88514
6.05	4.89073
6.06	4.88415
6.07	4.88613
6.08	4.89205
6.09	4.8858
6.1	4.87461
6.11	4.87264
6.12	4.87396
6.13	4.88119
6.14	4.86968
6.15	4.86672
6.16	4.84369
6.17	4.85784
6.18	4.86211
6.19	4.84665
6.2	4.85948
6.21	4.85192
6.22	4.83777
6.23	4.84928
6.24	4.8381
6.25	4.83843
6.26	4.84238
6.27	4.83843
6.28	4.82856
6.29	4.8302
6.3	4.82659
6.31	4.82231
6.32	4.82757
6.33	4.8256
6.34	4.8279
6.35	4.81803
6.36	4.80718
6.37	4.82001
6.38	4.81211
6.39	4.80685
6.4	4.79632
6.41	4.80422
6.42	4.80619
6.43	4.79665
6.44	4.79336
6.45	4.7904
6.46	4.79237
6.47	4.78876
6.48	4.78382
6.49	4.77954
6.5	4.77099
6.51	4.7677
6.52	4.77658
6.53	4.78843
6.54	4.77527
6.55	4.77132
6.56	4.76935
6.57	4.7631
6.58	4.76606
6.59	4.76408
6.6	4.75356
6.61	4.7779
6.62	4.77329
6.63	4.74237
6.64	4.77264
6.65	4.74402
6.66	4.75619
6.67	4.74402
6.68	4.74994
6.69	4.73645
6.7	4.74435
6.71	4.73941
6.72	4.74204
6.73	4.72527
6.74	4.73283
6.75	4.7325
6.76	4.73217
6.77	4.7256
6.78	4.72592
6.79	4.72691
6.8	4.72296
6.81	4.70684
6.82	4.71408
6.83	4.72066
6.84	4.69961
6.85	4.70224
6.86	4.71638
6.87	4.70454
6.88	4.70323
6.89	4.69796
6.9	4.70915
6.91	4.70257
6.92	4.68612
6.93	4.69796
6.94	4.69895
6.95	4.6904
6.96	4.68579
6.97	4.68053
6.98	4.6848
6.99	4.6779
7	4.68678
7.01	4.68283
7.02	4.67757
7.03	4.6598
7.04	4.65619
7.05	4.67362
7.06	4.66737
7.07	4.67066
7.08	4.66704
7.09	4.65224
7.1	4.65717
7.11	4.66605
7.12	4.66408
7.13	4.66967
7.14	4.66605
7.15	4.64763
7.16	4.64862
7.17	4.65586
7.18	4.64533
7.19	4.64895
7.2	4.65092
7.21	4.64303
7.22	4.64796
7.23	4.64204
7.24	4.63809
7.25	4.63415
7.26	4.62625
7.27	4.64697
7.28	4.63283
7.29	4.6223
7.3	4.62428
7.31	4.62625
7.32	4.63349
7.33	4.6223
7.34	4.61539
7.35	4.63118
7.36	4.62033
7.37	4.60322
7.38	4.61638
7.39	4.6052
7.4	4.59237
7.41	4.59928
7.42	4.58908
7.43	4.59796
7.44	4.58809
7.45	4.59895
7.46	4.58743
7.47	4.58743
7.48	4.57987
7.49	4.59171
7.5	4.5802
7.51	4.58118
7.52	4.58743
7.53	4.58151
7.54	4.58053
7.55	4.57822
7.56	4.56605
7.57	4.56638
7.58	4.5723
7.59	4.57691
7.6	4.57164
7.61	4.5598
7.62	4.56638
7.63	4.5598
7.64	4.55684
7.65	4.55585
7.66	4.54401
7.67	4.545
7.68	4.53875
7.69	4.55783
7.7	4.53809
7.71	4.55191
7.72	4.54664
7.73	4.545
7.74	4.5427
7.75	4.54368
7.76	4.52723
7.77	4.53546
7.78	4.53283
7.79	4.52526
7.8	4.51802
7.81	4.52263
7.82	4.52098
7.83	4.52362
7.84	4.53118
7.85	4.53151
7.86	4.5223
7.87	4.52822
7.88	4.51572
7.89	4.51835
7.9	4.51243
7.91	4.51572
7.92	4.53316
7.93	4.53612
7.94	4.51671
7.95	4.51473
7.96	4.52329
7.97	4.50815
7.98	4.51835
7.99	4.52296
8	4.52197
8.01	4.5075
8.02	4.51967
8.03	4.5144
8.04	4.50947
8.05	4.50881
8.06	4.5075
8.07	4.51638
8.08	4.49467
8.09	4.48644
8.1	4.50454
8.11	4.49335
8.12	4.51506
8.13	4.50092
8.14	4.49829
8.15	4.48282
8.16	4.48875
8.17	4.48644
8.18	4.48381
8.19	4.49072
8.2	4.48611
8.21	4.46703
8.22	4.48546
8.23	4.47921
8.24	4.46703
8.25	4.46934
8.26	4.47098
8.27	4.47296
8.28	4.46703
8.29	4.46967
8.3	4.4644
8.31	4.47065
8.32	4.46506
8.33	4.45552
8.34	4.46013
8.35	4.4598
8.36	4.45914
8.37	4.45717
8.38	4.44927
8.39	4.45124
8.4	4.44993
8.41	4.45684
8.42	4.43809
8.43	4.45519
8.44	4.44993
8.45	4.42723
8.46	4.44105
8.47	4.43776
8.48	4.42723
8.49	4.43447
8.5	4.45059
8.51	4.42756
8.52	4.42986
8.53	4.43611
8.54	4.41835
8.55	4.41901
8.56	4.42164
8.57	4.41868
8.58	4.43217
8.59	4.42164
8.6	4.41901
8.61	4.41473
8.62	4.41144
8.63	4.4292
8.64	4.40881
8.65	4.41374
8.66	4.41572
8.67	4.40322
8.68	4.39795
8.69	4.40749
8.7	4.40651
8.71	4.41013
8.72	4.41078
8.73	4.39598
8.74	4.38118
8.75	4.3996
8.76	4.41605
8.77	4.4019
8.78	4.39697
8.79	4.3894
8.8	4.38677
8.81	4.39466
8.82	4.39269
8.83	4.3917
8.84	4.37262
8.85	4.38743
8.86	4.39072
8.87	4.3996
8.88	4.37657
8.89	4.37591
8.9	4.37493
8.91	4.37427
8.92	4.37526
8.93	4.37789
8.94	4.39072
8.95	4.37526
8.96	4.37197
8.97	4.37131
8.98	4.38249
8.99	4.37591
9	4.38216
9.01	4.37657
9.02	4.38545
9.03	4.37295
9.04	4.36637
9.05	4.37591
9.06	4.36999
9.07	4.36835
9.08	4.35618
9.09	4.3621
9.1	4.37394
9.11	4.3621
9.12	4.35947
9.13	4.35519
9.14	4.36144
9.15	4.36144
9.16	4.36473
9.17	4.35815
9.18	4.34433
9.19	4.35124
9.2	4.35486
9.21	4.34499
9.22	4.35387
9.23	4.3496
9.24	4.35058
9.25	4.34433
9.26	4.34433
9.27	4.34631
9.28	4.34729
9.29	4.3496
9.3	4.34006
9.31	4.3394
9.32	4.32887
9.33	4.34697
9.34	4.33973
9.35	4.33512
9.36	4.32361
9.37	4.33808
9.38	4.33282
9.39	4.32262
9.4	4.32262
9.41	4.34565
9.42	4.33183
9.43	4.32328
9.44	4.32394
9.45	4.31933
9.46	4.33282
9.47	4.32164
9.48	4.31539
9.49	4.3121
9.5	4.31341
9.51	4.31604
9.52	4.30782
9.53	4.31571
9.54	4.32361
9.55	4.32887
9.56	4.32723
9.57	4.31604
9.58	4.31999
9.59	4.30815
9.6	4.31835
9.61	4.3167
9.62	4.30716
9.63	4.31111
9.64	4.29729
9.65	4.31571
9.66	4.3019
9.67	4.30124
9.68	4.31571
9.69	4.3121
9.7	4.28808
9.71	4.29992
9.72	4.29729
9.73	4.28315
9.74	4.28479
9.75	4.29762
9.76	4.30223
9.77	4.29367
9.78	4.30387
9.79	4.28709
9.8	4.28315
9.81	4.29466
9.82	4.28611
9.83	4.28479
9.84	4.27723
9.85	4.28019
9.86	4.2792
9.87	4.29071
9.88	4.29367
9.89	4.26703
9.9	4.29236
9.91	4.26802
9.92	4.2713
9.93	4.27986
9.94	4.27887
9.95	4.2815
9.96	4.2769
9.97	4.26045
9.98	4.26999
9.99	4.2792
10	4.27525
10.01	4.26308
10.02	4.27295
10.03	4.27788
10.04	4.27525
10.05	4.27361
10.06	4.2713
10.07	4.27394
10.08	4.25486
10.09	4.269
10.1	4.26571
10.11	4.26111
10.12	4.25058
10.13	4.25683
10.14	4.2713
10.15	4.27295
10.16	4.26703
10.17	4.26111
10.18	4.26242
10.19	4.26341
10.2	4.24959
10.21	4.2542
10.22	4.25946
10.23	4.25848
10.24	4.25255
10.25	4.24565
10.26	4.24992
10.27	4.26505
10.28	4.25091
10.29	4.24663
10.3	4.2417
10.31	4.24663
10.32	4.24894
10.33	4.24532
10.34	4.24005
10.35	4.24433
10.36	4.25288
10.37	4.24499
10.38	4.25683
10.39	4.24334
10.4	4.23775
10.41	4.24499
10.42	4.24729
10.43	4.2338
10.44	4.24301
10.45	4.23216
10.46	4.22591
10.47	4.24236
10.48	4.22986
10.49	4.23709
10.5	4.23512
10.51	4.23479
10.52	4.23578
10.53	4.23611
10.54	4.22097
10.55	4.22196
10.56	4.22986
10.57	4.23249
10.58	4.22229
10.59	4.21571
10.6	4.22986
10.61	4.22065
10.62	4.22525
10.63	4.22328
10.64	4.22821
10.65	4.21538
10.66	4.21275
10.67	4.22262
10.68	4.23644
10.69	4.21933
10.7	4.21538
10.71	4.20486
10.72	4.23051
10.73	4.21407
10.74	4.21176
10.75	4.22163
10.76	4.20486
10.77	4.20782
10.78	4.22032
10.79	4.2088
10.8	4.19696
10.81	4.20815
10.82	4.2065
10.83	4.21966
10.84	4.21867
10.85	4.21374
10.86	4.22459
10.87	4.22361
10.88	4.21768
10.89	4.22361
10.9	4.20058
10.91	4.20683
10.92	4.21472
10.93	4.22361
10.94	4.20091
10.95	4.20387
10.96	4.19992
10.97	4.1838
10.98	4.2065
10.99	4.20913
11	4.20453
11.01	4.20453
11.02	4.19992
11.03	4.19301
11.04	4.2167
11.05	4.20683
11.06	4.19268
11.07	4.20157
11.08	4.19071
11.09	4.19729
11.1	4.19861
11.11	4.19663
11.12	4.19203
11.13	4.1963
11.14	4.17262
11.15	4.17426
11.16	4.18347
11.17	4.19236
11.18	4.1917
11.19	4.18775
11.2	4.19861
11.21	4.18643
11.22	4.1838
11.23	4.17985
11.24	4.18907
11.25	4.194
11.26	4.18874
11.27	4.17459
11.28	4.17163
11.29	4.17755
11.3	4.18347
11.31	4.1792
11.32	4.17689
11.33	4.19005
11.34	4.17953
11.35	4.17689
11.36	4.17558
11.37	4.17755
11.38	4.18841
11.39	4.19005
11.4	4.17788
11.41	4.16768
11.42	4.1861
11.43	4.18907
11.44	4.18183
11.45	4.17064
11.46	4.16933
11.47	4.17722
11.48	4.17031
11.49	4.17196
11.5	4.17163
11.51	4.16801
11.52	4.17657
11.53	4.18479
11.54	4.18249
11.55	4.17064
11.56	4.16571
11.57	4.15847
11.58	4.16703
11.59	4.17558
11.6	4.17031
11.61	4.16341
11.62	4.16801
11.63	4.16505
11.64	4.16538
11.65	4.16505
11.66	4.15518
11.67	4.1588
11.68	4.15847
11.69	4.16078
11.7	4.15518
11.71	4.14762
11.72	4.16045
11.73	4.16834
11.74	4.15485
11.75	4.17064
11.76	4.16275
11.77	4.15913
11.78	4.16078
11.79	4.15288
11.8	4.15255
11.81	4.15321
11.82	4.15255
11.83	4.15091
11.84	4.15288
11.85	4.15288
11.86	4.15617
11.87	4.15288
11.88	4.1611
11.89	4.15749
11.9	4.15716
11.91	4.14893
11.92	4.14729
11.93	4.15979
11.94	4.14795
11.95	4.14663
11.96	4.15025
11.97	4.14531
11.98	4.1463
11.99	4.14795
12	4.15025
12.01	4.13939
12.02	4.14564
12.03	4.14202
12.04	4.14367
12.05	4.14433
12.06	4.14992
12.07	4.14729
12.08	4.14499
12.09	4.13512
12.1	4.14367
12.11	4.14663
12.12	4.15518
12.13	4.13972
12.14	4.1292
12.15	4.15189
12.16	4.15156
12.17	4.1361
12.18	4.14202
12.19	4.14301
12.2	4.12952
12.21	4.1417
12.22	4.14827
12.23	4.14729
12.24	4.14959
12.25	4.1417
12.26	4.13939
12.27	4.12492
12.28	4.14137
12.29	4.13939
12.3	4.13906
12.31	4.13643
12.32	4.1486
12.33	4.13808
12.34	4.12722
12.35	4.1236
12.36	4.14433
12.37	4.12887
12.38	4.12952
12.39	4.13742
12.4	4.12525
12.41	4.13742
12.42	4.14334
12.43	4.13676
12.44	4.1361
12.45	4.15255
12.46	4.13413
12.47	4.12591
12.48	4.13281
12.49	4.1361
12.5	4.13018
12.51	4.13347
12.52	4.13479
12.53	4.119
12.54	4.12952
12.55	4.12788
12.56	4.12525
12.57	4.12229
12.58	4.1338
12.59	4.13446
12.6	4.11538
12.61	4.11834
12.62	4.12295
12.63	4.13216
12.64	4.12262
12.65	4.1292
12.66	4.12689
12.67	4.12887
12.68	4.12327
12.69	4.13775
12.7	4.12656
12.71	4.11044
12.72	4.11176
12.73	4.12163
12.74	4.11669
12.75	4.10847
12.76	4.11702
12.77	4.10683
12.78	4.10452
12.79	4.12262
12.8	4.10485
12.81	4.10748
12.82	4.11341
12.83	4.11242
12.84	4.12656
12.85	4.12229
12.86	4.10979
12.87	4.10321
12.88	4.10485
12.89	4.11077
12.9	4.10584
12.91	4.11176
12.92	4.11242
12.93	4.11373
12.94	4.10189
12.95	4.10156
12.96	4.11373
12.97	4.11867
12.98	4.10419
12.99	4.10551
13	4.10387
13.01	4.09202
13.02	4.11637
13.03	4.10452
13.04	4.11505
13.05	4.10617
13.06	4.0986
13.07	4.10781
13.08	4.1088
13.09	4.10913
13.1	4.11143
13.11	4.11242
13.12	4.10419
13.13	4.10058
13.14	4.10617
13.15	4.10781
13.16	4.09926
13.17	4.09992
13.18	4.10255
13.19	4.1009
13.2	4.0884
13.21	4.09202
13.22	4.09465
13.23	4.10419
13.24	4.11012
13.25	4.10123
13.26	4.09992
13.27	4.09959
13.28	4.08972
13.29	4.09202
13.3	4.10387
13.31	4.09729
13.32	4.1009
13.33	4.09433
13.34	4.10123
13.35	4.09104
13.36	4.08873
13.37	4.10156
13.38	4.10321
13.39	4.08347
13.4	4.09071
13.41	4.09992
13.42	4.08873
13.43	4.09663
13.44	4.10321
13.45	4.09301
13.46	4.08906
13.47	4.08643
13.48	4.1009
13.49	4.10321
13.5	4.09992
13.51	4.09301
13.52	4.09137
13.53	4.08972
13.54	4.09926
13.55	4.09334
13.56	4.08972
13.57	4.09498
13.58	4.09038
13.59	4.09498
13.6	4.07163
13.61	4.07854
13.62	4.09729
13.63	4.08939
13.64	4.08676
13.65	4.07985
13.66	4.09531
13.67	4.08775
13.68	4.09235
13.69	4.09301
13.7	4.08183
13.71	4.07755
13.72	4.08808
13.73	4.09005
13.74	4.0838
13.75	4.08281
