"BIO-KINE ASCII FILE"
"_COMMENT"	"MOS-500 Spectrometer"
"_COMMENT"	"Kinetics measurement"
"_COMMENT"	"Y Unit : Volt,  X Unit : s"
"_COMMENT"	"Excitation wavelength : 380 nm"
"_COMMENT"	"Fentes bandwidth =  1 nm"
"_COMMENT"	"HV= 1000V"
"_COMMENT"	"Timebase  1 =  .01 s   5001 pts"
"_SFM"	"SFM-400 /S  Advanced mode"
"_SFM"	"Ratio : S1: 2.5, S2: 0, S3: 0, S4: 1"
"_SFM"	"Content : S1: , S2: , S3: , S4:"
"_SFM"	"Concentration : S1: , S2: , S3: , S4:"
"_SFM"	"Total volume : 209 µl  Flow : 3.5 mL/s"
"_SFM"	"Acquisition start :  10 ms before stop"
"_SFM"	"cuve=FC-15, s1=10 ml , s2=10 ml , s3=10 ml , s4=1.9 ml"
"_UNITX"	"s"
"_UNITY"	"Volt"
"_DELTAX"	0
"_DATA"
1e-300	4.41243
0.01	4.45519
0.02	4.47131
0.03	4.54368
0.04	4.61112
0.05	4.63645
0.06	4.67527
0.07	4.66244
0.08	4.70981
0.09	4.75158
0.1	4.73941
0.11	4.75619
0.12	4.76902
0.13	4.77691
0.14	4.77033
0.15	4.78316
0.16	4.76014
0.17	4.76737
0.18	4.76968
0.19	4.76737
0.2	4.81968
0.21	4.82856
0.22	4.76935
0.23	4.77658
0.24	4.77494
0.25	4.81639
0.26	4.82988
0.27	4.80816
0.28	4.77987
0.29	4.80257
0.3	4.79994
0.31	4.79369
0.32	4.7802
0.33	4.81014
0.34	4.76836
0.35	4.76277
0.36	4.77461
0.37	4.77362
0.38	4.77757
0.39	4.81277
0.4	4.81935
0.41	4.79961
0.42	4.76014
0.43	4.7904
0.44	4.77527
0.45	4.77691
0.46	4.75389
0.47	4.75652
0.48	4.77658
0.49	4.77527
0.5	4.74895
0.51	4.74961
0.52	4.74204
0.53	4.74665
0.54	4.7381
0.55	4.77889
0.56	4.73514
0.57	4.72395
0.58	4.75454
0.59	4.75487
0.6	4.75849
0.61	4.71737
0.62	4.73349
0.63	4.74402
0.64	4.74533
0.65	4.74402
0.66	4.69402
0.67	4.70125
0.68	4.73678
0.69	4.74994
0.7	4.76244
0.71	4.7404
0.72	4.72592
0.73	4.73283
0.74	4.73908
0.75	4.74007
0.76	4.73777
0.77	4.73119
0.78	4.75586
0.79	4.71342
0.8	4.73382
0.81	4.7302
0.82	4.76737
0.83	4.75027
0.84	4.74007
0.85	4.70915
0.86	4.70257
0.87	4.73481
0.88	4.71803
0.89	4.68546
0.9	4.72921
0.91	4.71935
0.92	4.71375
0.93	4.70323
0.94	4.76211
0.95	4.7256
0.96	4.72987
0.97	4.68941
0.98	4.71704
0.99	4.72198
1	4.71902
1.01	4.71112
1.02	4.69829
1.03	4.69467
1.04	4.70816
1.05	4.72
1.06	4.68612
1.07	4.64763
1.08	4.70356
1.09	4.68612
1.1	4.70092
1.11	4.67954
1.12	4.67724
1.13	4.68941
1.14	4.70092
1.15	4.69204
1.16	4.69105
1.17	4.69467
1.18	4.66605
1.19	4.71079
1.2	4.67428
1.21	4.64829
1.22	4.71046
1.23	4.65816
1.24	4.65388
1.25	4.67987
1.26	4.65059
1.27	4.61967
1.28	4.66967
1.29	4.65619
1.3	4.66046
1.31	4.67757
1.32	4.6848
1.33	4.67559
1.34	4.64204
1.35	4.65191
1.36	4.67362
1.37	4.66901
1.38	4.69961
1.39	4.6779
1.4	4.66211
1.41	4.68546
1.42	4.66671
1.43	4.6302
1.44	4.63678
1.45	4.66737
1.46	4.67987
1.47	4.65915
1.48	4.69105
1.49	4.65882
1.5	4.67494
1.51	4.64928
1.52	4.64895
1.53	4.65355
1.54	4.64566
1.55	4.65125
1.56	4.68744
1.57	4.64895
1.58	4.6325
1.59	4.62132
1.6	4.61112
1.61	4.64697
1.62	4.67494
1.63	4.66967
1.64	4.69204
1.65	4.62921
1.66	4.59335
1.67	4.63513
1.68	4.64303
1.69	4.62691
1.7	4.63151
1.71	4.61112
1.72	4.62888
1.73	4.66967
1.74	4.64303
1.75	4.63579
1.76	4.66704
1.77	4.63415
1.78	4.62724
1.79	4.6098
1.8	4.57526
1.81	4.60388
1.82	4.67428
1.83	4.60914
1.84	4.62296
1.85	4.59368
1.86	4.5927
1.87	4.60388
1.88	4.59664
1.89	4.61605
1.9	4.6177
1.91	4.61737
1.92	4.59796
1.93	4.6325
1.94	4.61441
1.95	4.60849
1.96	4.61901
1.97	4.58875
1.98	4.56835
1.99	4.63776
2	4.60585
2.01	4.60355
2.02	4.58743
2.03	4.62197
2.04	4.60618
2.05	4.64763
2.06	4.61967
2.07	4.59039
2.08	4.61901
2.09	4.55849
2.1	4.59697
2.11	4.57625
2.12	4.59171
2.13	4.6075
2.14	4.56506
2.15	4.62296
2.16	4.61013
2.17	4.63151
2.18	4.58908
2.19	4.59928
2.2	4.58414
2.21	4.62493
2.22	4.5677
2.23	4.60322
2.24	4.58513
2.25	4.6052
2.26	4.57197
2.27	4.55191
2.28	4.62
2.29	4.65191
2.3	4.58908
2.31	4.55947
2.32	4.55651
2.33	4.56046
2.34	4.58842
2.35	4.58776
2.36	4.55552
2.37	4.56276
2.38	4.61013
2.39	4.58678
2.4	4.55289
2.41	4.54895
2.42	4.58776
2.43	4.5848
2.44	4.5871
2.45	4.57592
2.46	4.58316
2.47	4.56868
2.48	4.55092
2.49	4.54368
2.5	4.55191
2.51	4.56441
2.52	4.56967
2.53	4.56704
2.54	4.59763
2.55	4.59467
2.56	4.59467
2.57	4.56638
2.58	4.54993
2.59	4.51408
2.6	4.51769
2.61	4.57
2.62	4.53447
2.63	4.56112
2.64	4.58085
2.65	4.58842
2.66	4.57099
2.67	4.55849
2.68	4.50881
2.69	4.51769
2.7	4.49236
2.71	4.51737
2.72	4.54895
2.73	4.57559
2.74	4.56013
2.75	4.49533
2.76	4.52526
2.77	4.5348
2.78	4.55223
2.79	4.57066
2.8	4.54895
2.81	4.53579
2.82	4.53743
2.83	4.53217
2.84	4.54796
2.85	4.54138
2.86	4.55618
2.87	4.56177
2.88	4.5598
2.89	4.54401
2.9	4.53809
2.91	4.5371
2.92	4.54467
2.93	4.53579
2.94	4.54598
2.95	4.4973
2.96	4.54237
2.97	4.5223
2.98	4.49664
2.99	4.47427
3	4.5019
3.01	4.51375
3.02	4.48908
3.03	4.48579
3.04	4.48973
3.05	4.4973
3.06	4.48809
3.07	4.54237
3.08	4.47394
3.09	4.51013
3.1	4.51079
3.11	4.48348
3.12	4.48282
3.13	4.49598
3.14	4.5019
3.15	4.51079
3.16	4.46407
3.17	4.5121
3.18	4.5098
3.19	4.48282
3.2	4.48677
3.21	4.48677
3.22	4.50421
3.23	4.49565
3.24	4.52756
3.25	4.52362
3.26	4.47526
3.27	4.49039
3.28	4.45519
3.29	4.46144
3.3	4.50585
3.31	4.49138
3.32	4.52296
3.33	4.50388
3.34	4.4996
3.35	4.4996
3.36	4.46967
3.37	4.45717
3.38	4.49861
3.39	4.47921
3.4	4.49796
3.41	4.52131
3.42	4.46703
3.43	4.47888
3.44	4.4973
3.45	4.45947
3.46	4.49204
3.47	4.46013
3.48	4.48776
3.49	4.49105
3.5	4.48348
3.51	4.50684
3.52	4.46144
3.53	4.45157
3.54	4.48677
3.55	4.49631
3.56	4.45684
3.57	4.45684
3.58	4.49434
3.59	4.50585
3.6	4.47361
3.61	4.42986
3.62	4.48151
3.63	4.49335
3.64	4.46572
3.65	4.46078
3.66	4.46802
3.67	4.48776
3.68	4.46572
3.69	4.42493
3.7	4.45157
3.71	4.46013
3.72	4.44105
3.73	4.43907
3.74	4.45519
3.75	4.46144
3.76	4.42855
3.77	4.45651
3.78	4.42526
3.79	4.43052
3.8	4.47559
3.81	4.45585
3.82	4.47559
3.83	4.4519
3.84	4.43315
3.85	4.46769
3.86	4.45717
3.87	4.46046
3.88	4.44335
3.89	4.47164
3.9	4.43578
3.91	4.47131
3.92	4.49335
3.93	4.45914
3.94	4.46177
3.95	4.41999
3.96	4.39137
3.97	4.4121
3.98	4.42394
3.99	4.44499
4	4.45552
4.01	4.38973
4.02	4.40749
4.03	4.43151
4.04	4.45355
4.05	4.41736
4.06	4.44467
4.07	4.42526
4.08	4.46835
4.09	4.45092
4.1	4.42526
4.11	4.42789
4.12	4.45059
4.13	4.43151
4.14	4.42986
4.15	4.45059
4.16	4.40684
4.17	4.37953
4.18	4.37591
4.19	4.42328
4.2	4.43513
4.21	4.42197
4.22	4.4121
4.23	4.41341
4.24	4.43414
4.25	4.39993
4.26	4.42361
4.27	4.44763
4.28	4.41901
4.29	4.4144
4.3	4.39335
4.31	4.40848
4.32	4.40585
4.33	4.48282
4.34	4.44302
4.35	4.41243
4.36	4.39532
4.37	4.36374
4.38	4.43184
4.39	4.38841
4.4	4.37657
4.41	4.4042
4.42	4.4042
4.43	4.4121
4.44	4.40124
4.45	4.41506
4.46	4.36111
4.47	4.40157
4.48	4.41835
4.49	4.44006
4.5	4.40881
4.51	4.40947
4.52	4.40651
4.53	4.44072
4.54	4.43348
4.55	4.42657
4.56	4.39072
4.57	4.39993
4.58	4.43052
4.59	4.41703
4.6	4.41473
4.61	4.37887
4.62	4.40749
4.63	4.40749
4.64	4.40651
4.65	4.40519
4.66	4.4121
4.67	4.43019
4.68	4.41078
4.69	4.41605
4.7	4.39137
4.71	4.3644
4.72	4.36539
4.73	4.38315
4.74	4.39993
4.75	4.4042
4.76	4.44631
4.77	4.38019
4.78	4.41276
4.79	4.36078
4.8	4.36637
4.81	4.38085
4.82	4.38743
4.83	4.37887
4.84	4.38315
4.85	4.36407
4.86	4.36868
4.87	4.36539
4.88	4.35749
4.89	4.4019
4.9	4.40387
4.91	4.3973
4.92	4.344
4.93	4.3496
4.94	4.34828
4.95	4.39039
4.96	4.38118
4.97	4.37164
4.98	4.38677
4.99	4.37427
5	4.37789
5.01	4.35223
5.02	4.35387
5.03	4.37953
5.04	4.38808
5.05	4.35618
5.06	4.34762
5.07	4.34532
5.08	4.3769
5.09	4.36703
5.1	4.3496
5.11	4.33743
5.12	4.34664
5.13	4.38447
5.14	4.38052
5.15	4.37986
5.16	4.32756
5.17	4.3417
5.18	4.38183
5.19	4.35289
5.2	4.3621
5.21	4.34137
5.22	4.33479
5.23	4.32229
5.24	4.34072
5.25	4.35585
5.26	4.38085
5.27	4.34104
5.28	4.31604
5.29	4.32624
5.3	4.344
5.31	4.33019
5.32	4.31341
5.33	4.34894
5.34	4.3542
5.35	4.34861
5.36	4.33381
5.37	4.33973
5.38	4.34433
5.39	4.30749
5.4	4.3746
5.41	4.36999
5.42	4.34631
5.43	4.31604
5.44	4.3394
5.45	4.3292
5.46	4.33282
5.47	4.34532
5.48	4.30979
5.49	4.35387
5.5	4.33545
5.51	4.34795
5.52	4.34795
5.53	4.32591
5.54	4.34072
5.55	4.36177
5.56	4.34664
5.57	4.36539
5.58	4.31275
5.59	4.32229
5.6	4.33414
5.61	4.37657
5.62	4.34993
5.63	4.36144
5.64	4.32756
5.65	4.33479
5.66	4.35124
5.67	4.3519
5.68	4.30387
5.69	4.32394
5.7	4.32723
5.71	4.33183
5.72	4.32065
5.73	4.34466
5.74	4.32098
5.75	4.33183
5.76	4.31966
5.77	4.30881
5.78	4.32723
5.79	4.29433
5.8	4.3167
5.81	4.31933
5.82	4.32427
5.83	4.35091
5.84	4.34697
5.85	4.33446
5.86	4.3042
5.87	4.32591
5.88	4.37558
5.89	4.35058
5.9	4.32427
5.91	4.3371
5.92	4.33414
5.93	4.30617
5.94	4.29729
5.95	4.29466
5.96	4.29466
5.97	4.3144
5.98	4.28052
5.99	4.31999
6	4.30387
6.01	4.34664
6.02	4.35453
6.03	4.294
6.04	4.29565
6.05	4.30091
6.06	4.33479
6.07	4.3315
6.08	4.30354
6.09	4.27821
6.1	4.30617
6.11	4.2588
6.12	4.25716
6.13	4.30354
6.14	4.30848
6.15	4.3292
6.16	4.29631
6.17	4.28216
6.18	4.31078
6.19	4.29762
6.2	4.29696
6.21	4.29729
6.22	4.30585
6.23	4.30321
6.24	4.30683
6.25	4.32756
6.26	4.28775
6.27	4.28973
6.28	4.30256
6.29	4.31078
6.3	4.32591
6.31	4.2996
6.32	4.31703
6.33	4.27788
6.34	4.30946
6.35	4.26966
6.36	4.29038
6.37	4.26308
6.38	4.28644
6.39	4.27854
6.4	4.26407
6.41	4.3042
6.42	4.27986
6.43	4.31867
6.44	4.29729
6.45	4.30519
6.46	4.28841
6.47	4.3269
6.48	4.30815
6.49	4.31308
6.5	4.31177
6.51	4.25519
6.52	4.28644
6.53	4.27756
6.54	4.30486
6.55	4.29828
6.56	4.26407
6.57	4.29104
6.58	4.28677
6.59	4.2588
6.6	4.26045
6.61	4.26999
6.62	4.32196
6.63	4.24795
6.64	4.26045
6.65	4.27361
6.66	4.25519
6.67	4.28907
6.68	4.2519
6.69	4.28874
6.7	4.28084
6.71	4.29269
6.72	4.29302
6.73	4.25321
6.74	4.27361
6.75	4.24894
6.76	4.26802
6.77	4.25157
6.78	4.28578
6.79	4.28446
6.8	4.29203
6.81	4.31177
6.82	4.27756
6.83	4.29236
6.84	4.24861
6.85	4.29762
6.86	4.26769
6.87	4.26012
6.88	4.29795
6.89	4.2917
6.9	4.28052
6.91	4.27295
6.92	4.27098
6.93	4.27098
6.94	4.26736
6.95	4.2894
6.96	4.29466
6.97	4.29532
6.98	4.2917
6.99	4.24499
7	4.25913
7.01	4.2644
7.02	4.25782
7.03	4.29795
7.04	4.29335
7.05	4.23347
7.06	4.29335
7.07	4.26933
7.08	4.23841
7.09	4.22722
7.1	4.26867
7.11	4.2542
7.12	4.23644
7.13	4.294
7.14	4.26078
7.15	4.29236
7.16	4.25321
7.17	4.26111
7.18	4.27328
7.19	4.24466
7.2	4.2315
7.21	4.26538
7.22	4.24663
7.23	4.25288
7.24	4.2417
7.25	4.2588
7.26	4.27723
7.27	4.2269
7.28	4.25025
7.29	4.26407
7.3	4.23183
7.31	4.244
7.32	4.23973
7.33	4.24334
7.34	4.25223
7.35	4.22262
7.36	4.23479
7.37	4.24466
7.38	4.23709
7.39	4.23183
7.4	4.194
7.41	4.19828
7.42	4.20913
7.43	4.18972
7.44	4.26769
7.45	4.28742
7.46	4.2463
7.47	4.2269
7.48	4.22328
7.49	4.23545
7.5	4.24104
7.51	4.22229
7.52	4.244
7.53	4.22426
7.54	4.23413
7.55	4.25486
7.56	4.20584
7.57	4.24236
7.58	4.25124
7.59	4.22591
7.6	4.21933
7.61	4.23413
7.62	4.24959
7.63	4.25584
7.64	4.22624
7.65	4.24861
7.66	4.22065
7.67	4.21176
7.68	4.20913
7.69	4.21111
7.7	4.20288
7.71	4.2144
7.72	4.24071
7.73	4.20387
7.74	4.21111
7.75	4.23216
7.76	4.21209
7.77	4.18808
7.78	4.23808
7.79	4.24071
7.8	4.22097
7.81	4.24696
7.82	4.24301
7.83	4.27525
7.84	4.2542
7.85	4.21768
7.86	4.1838
7.87	4.22558
7.88	4.25683
7.89	4.26275
7.9	4.22262
7.91	4.24696
7.92	4.21801
7.93	4.21143
7.94	4.21999
7.95	4.21933
7.96	4.19071
7.97	4.18314
7.98	4.21472
7.99	4.20091
8	4.19499
8.01	4.18051
8.02	4.20815
8.03	4.20058
8.04	4.18808
8.05	4.20584
8.06	4.24203
8.07	4.26473
8.08	4.19532
8.09	4.21407
8.1	4.23907
8.11	4.19795
8.12	4.19861
8.13	4.21834
8.14	4.21604
8.15	4.22295
8.16	4.20913
8.17	4.25716
8.18	4.19696
8.19	4.2167
8.2	4.19893
8.21	4.23446
8.22	4.24598
8.23	4.21867
8.24	4.20486
8.25	4.21999
8.26	4.19564
8.27	4.19828
8.28	4.17755
8.29	4.20058
8.3	4.21242
8.31	4.20518
8.32	4.18446
8.33	4.1963
8.34	4.23742
8.35	4.19433
8.36	4.19729
8.37	4.19433
8.38	4.20913
8.39	4.20518
8.4	4.20321
8.41	4.22525
8.42	4.21801
8.43	4.21242
8.44	4.22426
8.45	4.20387
8.46	4.17328
8.47	4.17689
8.48	4.1963
8.49	4.17722
8.5	4.19334
8.51	4.17689
8.52	4.19499
8.53	4.19499
8.54	4.19762
8.55	4.16308
8.56	4.19466
8.57	4.23249
8.58	4.20584
8.59	4.18775
8.6	4.18018
8.61	4.17887
8.62	4.17492
8.63	4.23019
8.64	4.23446
8.65	4.2065
8.66	4.16703
8.67	4.18545
8.68	4.18972
8.69	4.19433
8.7	4.21176
8.71	4.2463
8.72	4.22394
8.73	4.22624
8.74	4.23841
8.75	4.19959
8.76	4.16571
8.77	4.21275
8.78	4.20058
8.79	4.21209
8.8	4.1667
8.81	4.18676
8.82	4.19729
8.83	4.15452
8.84	4.20551
8.85	4.16143
8.86	4.19367
8.87	4.18578
8.88	4.1838
8.89	4.2144
8.9	4.23183
8.91	4.20354
8.92	4.16143
8.93	4.17624
8.94	4.17953
8.95	4.20288
8.96	4.18051
8.97	4.18939
8.98	4.18939
8.99	4.20518
9	4.17393
9.01	4.16242
9.02	4.19334
9.03	4.1963
9.04	4.17229
9.05	4.17755
9.06	4.16209
9.07	4.13643
9.08	4.1917
9.09	4.18347
9.1	4.19893
9.11	4.18841
9.12	4.17722
9.13	4.17624
9.14	4.17985
9.15	4.17393
9.16	4.19828
9.17	4.21012
9.18	4.20749
9.19	4.17624
9.2	4.16439
9.21	4.17426
9.22	4.16505
9.23	4.16472
9.24	4.18314
9.25	4.20946
9.26	4.19236
9.27	4.17755
9.28	4.14235
9.29	4.14663
9.3	4.15485
9.31	4.17722
9.32	4.18413
9.33	4.18051
9.34	4.1667
9.35	4.21933
9.36	4.17295
9.37	4.18709
9.38	4.18051
9.39	4.17591
9.4	4.14005
9.41	4.16735
9.42	4.12887
9.43	4.15913
9.44	4.16505
9.45	4.12623
9.46	4.15781
9.47	4.20387
9.48	4.1917
9.49	4.18314
9.5	4.14367
9.51	4.17328
9.52	4.16406
9.53	4.20551
9.54	4.17525
9.55	4.18216
9.56	4.14433
9.57	4.15584
9.58	4.18446
9.59	4.17031
9.6	4.18051
9.61	4.169
9.62	4.15124
9.63	4.16505
9.64	4.1588
9.65	4.17525
9.66	4.19104
9.67	4.16308
9.68	4.18314
9.69	4.19795
9.7	4.20847
9.71	4.16374
9.72	4.15683
9.73	4.20486
9.74	4.13906
9.75	4.14992
9.76	4.19071
9.77	4.17262
9.78	4.15749
9.79	4.21801
9.8	4.19795
9.81	4.1565
9.82	4.17196
9.83	4.17295
9.84	4.15387
9.85	4.1213
9.86	4.13216
9.87	4.13676
9.88	4.11505
9.89	4.12426
9.9	4.15584
9.91	4.15584
9.92	4.1542
9.93	4.15156
9.94	4.1463
9.95	4.14992
9.96	4.13281
9.97	4.1315
9.98	4.15749
9.99	4.14367
10	4.12854
10.01	4.14729
10.02	4.16505
10.03	4.12985
10.04	4.17097
10.05	4.15222
10.06	4.13545
10.07	4.17426
10.08	4.17953
10.09	4.11044
10.1	4.14564
10.11	4.15518
10.12	4.1542
10.13	4.17624
10.14	4.13545
10.15	4.16933
10.16	4.16209
10.17	4.17229
10.18	4.16078
10.19	4.16768
10.2	4.13281
10.21	4.13742
10.22	4.15683
10.23	4.13314
10.24	4.21045
10.25	4.17031
10.26	4.13742
10.27	4.11702
10.28	4.09038
10.29	4.13577
10.3	4.13413
10.31	4.13216
10.32	4.14762
10.33	4.13841
10.34	4.12854
10.35	4.12492
10.36	4.11505
10.37	4.12689
10.38	4.10814
10.39	4.14959
10.4	4.13643
10.41	4.12656
10.42	4.119
10.43	4.14729
10.44	4.15124
10.45	4.15814
10.46	4.13808
10.47	4.12459
10.48	4.14104
10.49	4.11341
10.5	4.16933
10.51	4.169
10.52	4.17064
10.53	4.14433
10.54	4.09038
10.55	4.12689
10.56	4.15354
10.57	4.1417
10.58	4.119
10.59	4.10387
10.6	4.13676
10.61	4.15946
10.62	4.12558
10.63	4.11637
10.64	4.13709
10.65	4.13545
10.66	4.1292
10.67	4.12196
10.68	4.10716
10.69	4.17229
10.7	4.12525
10.71	4.13314
10.72	4.14005
10.73	4.1713
10.74	4.15781
10.75	4.15617
10.76	4.18084
10.77	4.1838
10.78	4.16834
10.79	4.13545
10.8	4.12656
10.81	4.15716
10.82	4.1565
10.83	4.13512
10.84	4.12952
10.85	4.13841
10.86	4.11012
10.87	4.09498
10.88	4.12985
10.89	4.1611
10.9	4.11702
10.91	4.16505
10.92	4.13117
10.93	4.16012
10.94	4.15814
10.95	4.14235
10.96	4.09926
10.97	4.11044
10.98	4.12689
10.99	4.11801
11	4.13545
11.01	4.15814
11.02	4.12722
11.03	4.1111
11.04	4.13939
11.05	4.12327
11.06	4.15058
11.07	4.13939
11.08	4.14071
11.09	4.09202
11.1	4.11966
11.11	4.08939
11.12	4.12689
11.13	4.12985
11.14	4.10419
11.15	4.11176
11.16	4.0986
11.17	4.13281
11.18	4.13906
11.19	4.13216
11.2	4.07196
11.21	4.09268
11.22	4.11702
11.23	4.09959
11.24	4.13183
11.25	4.10452
11.26	4.12722
11.27	4.10354
11.28	4.094
11.29	4.11077
11.3	4.12821
11.31	4.14466
11.32	4.12229
11.33	4.10452
11.34	4.15058
11.35	4.12623
11.36	4.10452
11.37	4.1236
11.38	4.06242
11.39	4.09729
11.4	4.13479
11.41	4.12262
11.42	4.12163
11.43	4.09038
11.44	4.11143
11.45	4.10584
11.46	4.08051
11.47	4.12689
11.48	4.1236
11.49	4.10847
11.5	4.10419
11.51	4.09169
11.52	4.15025
11.53	4.0815
11.54	4.11669
11.55	4.11669
11.56	4.14959
11.57	4.11966
11.58	4.09597
11.59	4.11012
11.6	4.119
11.61	4.1065
11.62	4.11077
11.63	4.12952
11.64	4.11998
11.65	4.10025
11.66	4.08215
11.67	4.08906
11.68	4.10617
11.69	4.10485
11.7	4.14071
11.71	4.09762
11.72	4.15485
11.73	4.12755
11.74	4.08709
11.75	4.10419
11.76	4.13479
11.77	4.1111
11.78	4.10222
11.79	4.11867
11.8	4.10584
11.81	4.14663
11.82	4.08084
11.83	4.07097
11.84	4.119
11.85	4.09564
11.86	4.13545
11.87	4.09663
11.88	4.07689
11.89	4.09202
11.9	4.069
11.91	4.08544
11.92	4.08413
11.93	4.12459
11.94	4.10584
11.95	4.05946
11.96	4.1009
11.97	4.0815
11.98	4.11735
11.99	4.10058
12	4.12952
12.01	4.09465
12.02	4.11966
12.03	4.12393
12.04	4.10354
12.05	4.09137
12.06	4.09827
12.07	4.10584
12.08	4.14827
12.09	4.09137
12.1	4.08479
12.11	4.09564
12.12	4.05518
12.13	4.10058
12.14	4.08775
12.15	4.10847
12.16	4.069
12.17	4.06669
12.18	4.09038
12.19	4.10255
12.2	4.09597
12.21	4.11308
12.22	4.07952
12.23	4.09104
12.24	4.11472
12.25	4.11867
12.26	4.10781
12.27	4.12064
12.28	4.06998
12.29	4.10058
12.3	4.12623
12.31	4.09498
12.32	4.07492
12.33	4.08906
12.34	4.11341
12.35	4.14334
12.36	4.11406
12.37	4.11604
12.38	4.12262
12.39	4.08544
12.4	4.06209
12.41	4.11604
12.42	4.0611
12.43	4.03314
12.44	4.05748
12.45	4.08906
12.46	4.10518
12.47	4.09005
12.48	4.10584
12.49	4.05847
12.5	4.06867
12.51	4.12327
12.52	4.10025
12.53	4.09169
12.54	4.09433
12.55	4.10683
12.56	4.08972
12.57	4.08215
12.58	4.07689
12.59	4.05946
12.6	4.08676
12.61	4.09038
12.62	4.0838
12.63	4.07788
12.64	4.044
12.65	4.07985
12.66	4.07656
12.67	4.09564
12.68	4.11637
12.69	4.11702
12.7	4.08084
12.71	4.07558
12.72	4.05321
12.73	4.06439
12.74	4.08873
12.75	4.0884
12.76	4.08643
12.77	4.09564
12.78	4.10387
12.79	4.10222
12.8	4.1111
12.81	4.11867
12.82	4.07919
12.83	4.12097
12.84	4.09959
12.85	4.094
12.86	4.10419
12.87	4.11735
12.88	4.07426
12.89	4.06965
12.9	4.06406
12.91	4.10321
12.92	4.06768
12.93	4.05814
12.94	4.06373
12.95	4.0759
12.96	4.0588
12.97	4.12459
12.98	4.11176
12.99	4.1088
13	4.07919
13.01	4.09268
13.02	4.08413
13.03	4.11275
13.04	4.09235
13.05	4.08117
13.06	4.07525
13.07	4.1009
13.08	4.04169
13.09	4.09564
13.1	4.05946
13.11	4.04728
13.12	4.09071
13.13	4.05781
13.14	4.06472
13.15	4.08281
13.16	4.08873
13.17	4.08709
13.18	4.07229
13.19	4.07788
13.2	4.07426
13.21	4.07886
13.22	4.06965
13.23	4.10255
13.24	4.08939
13.25	4.08347
13.26	4.11373
13.27	4.09202
13.28	4.0861
13.29	4.11242
13.3	4.09663
13.31	4.06702
13.32	4.06538
13.33	4.094
13.34	4.09301
13.35	4.05715
13.36	4.07623
13.37	4.06604
13.38	4.07064
13.39	4.06636
13.4	4.07919
13.41	4.09071
13.42	4.03544
13.43	4.08347
13.44	4.05222
13.45	4.09334
13.46	4.06735
13.47	4.04728
13.48	4.05222
13.49	4.09169
13.5	4.07294
13.51	4.09564
13.52	4.06275
13.53	4.06275
13.54	4.07031
13.55	4.07985
13.56	4.06472
13.57	4.04235
13.58	4.06472
13.59	4.0463
13.6	4.03742
13.61	4.10288
13.62	4.08906
13.63	4.1009
13.64	4.11571
13.65	4.11341
13.66	4.10419
13.67	4.08117
13.68	4.0838
13.69	4.09367
13.7	4.09564
13.71	4.04893
13.72	4.04301
13.73	4.08084
13.74	4.08183
13.75	4.06867
13.76	4.06538
