"BIO-KINE ASCII FILE"
"_COMMENT"	"MOS-500 Spectrometer"
"_COMMENT"	"Kinetics measurement"
"_COMMENT"	"Y Unit : Volt,  X Unit : s"
"_COMMENT"	"Excitation wavelength : 380 nm"
"_COMMENT"	"Fentes bandwidth =  1 nm"
"_COMMENT"	"HV= 700V"
"_COMMENT"	"Timebase  1 =  .01 s   3001 pts"
"_SFM"	"SFM-400 /S  Advanced mode"
"_SFM"	"Ratio : S1: 2.5, S2: 0, S3: 0, S4: 1"
"_SFM"	"Content : S1: , S2: , S3: , S4:"
"_SFM"	"Concentration : S1: , S2: , S3: , S4:"
"_SFM"	"Total volume : 209 µl  Flow : 3.5 mL/s"
"_SFM"	"Acquisition start :  10 ms before stop"
"_SFM"	"cuve=FC-15, s1=10 ml , s2=10 ml , s3=10 ml , s4=1.9 ml"
"_UNITX"	"s"
"_UNITY"	"Volt"
"_DELTAX"	0
"_DATA"
1e-300	7.66647
0.01	8.35135
0.02	8.60037
0.03	8.65037
0.04	8.65925
0.05	8.64281
0.06	8.64083
0.07	8.66353
0.08	8.65794
0.09	8.64906
0.1	8.64445
0.11	8.65267
0.12	8.6586
0.13	8.64675
0.14	8.65366
0.15	8.65004
0.16	8.63721
0.17	8.6507
0.18	8.65465
0.19	8.64544
0.2	8.64544
0.21	8.63425
0.22	8.63656
0.23	8.63886
0.24	8.628
0.25	8.63162
0.26	8.63162
0.27	8.61024
0.28	8.6234
0.29	8.62274
0.3	8.6234
0.31	8.60366
0.32	8.61156
0.33	8.61057
0.34	8.58688
0.35	8.57669
0.36	8.59083
0.37	8.57998
0.38	8.56583
0.39	8.56057
0.4	8.56616
0.41	8.54872
0.42	8.54576
0.43	8.54247
0.44	8.5507
0.45	8.5428
0.46	8.52932
0.47	8.528
0.48	8.51846
0.49	8.50925
0.5	8.49116
0.51	8.50662
0.52	8.5007
0.53	8.4803
0.54	8.48557
0.55	8.48557
0.56	8.46616
0.57	8.45662
0.58	8.46287
0.59	8.45366
0.6	8.4326
0.61	8.453
0.62	8.43688
0.63	8.43195
0.64	8.42372
0.65	8.40102
0.66	8.42372
0.67	8.39708
0.68	8.4053
0.69	8.39708
0.7	8.3882
0.71	8.37734
0.72	8.36517
0.73	8.36056
0.74	8.36287
0.75	8.35365
0.76	8.34872
0.77	8.35004
0.78	8.33721
0.79	8.32405
0.8	8.31813
0.81	8.29938
0.82	8.30365
0.83	8.30464
0.84	8.30727
0.85	8.28852
0.86	8.28161
0.87	8.27569
0.88	8.25365
0.89	8.24971
0.9	8.25694
0.91	8.2474
0.92	8.24576
0.93	8.23359
0.94	8.22141
0.95	8.22931
0.96	8.22536
0.97	8.20826
0.98	8.21681
0.99	8.19872
1	8.20464
1.01	8.19806
1.02	8.19444
1.03	8.18424
1.04	8.17602
1.05	8.17437
1.06	8.16549
1.07	8.1622
1.08	8.16352
1.09	8.14148
1.1	8.14312
1.11	8.12174
1.12	8.11253
1.13	8.11681
1.14	8.11845
1.15	8.10957
1.16	8.08885
1.17	8.09345
1.18	8.09049
1.19	8.08325
1.2	8.06746
1.21	8.06549
1.22	8.0497
1.23	8.05496
1.24	8.04115
1.25	8.03556
1.26	8.03621
1.27	8.00858
1.28	8.01187
1.29	8.00463
1.3	8.00332
1.31	7.9974
1.32	7.977
1.33	7.9849
1.34	7.98062
1.35	7.96121
1.36	7.95036
1.37	7.96055
1.38	7.95068
1.39	7.94542
1.4	7.93851
1.41	7.92272
1.42	7.92832
1.43	7.927
1.44	7.90101
1.45	7.90496
1.46	7.90332
1.47	7.88391
1.48	7.89016
1.49	7.86812
1.5	7.86417
1.51	7.86022
1.52	7.85331
1.53	7.8441
1.54	7.85002
1.55	7.84443
1.56	7.83621
1.57	7.83226
1.58	7.80101
1.59	7.78752
1.6	7.79509
1.61	7.80035
1.62	7.78752
1.63	7.777
1.64	7.76976
1.65	7.77042
1.66	7.78456
1.67	7.76318
1.68	7.7418
1.69	7.74246
1.7	7.73259
1.71	7.7214
1.72	7.73489
1.73	7.71811
1.74	7.71713
1.75	7.70594
1.76	7.70298
1.77	7.68653
1.78	7.69903
1.79	7.69081
1.8	7.67469
1.81	7.66351
1.82	7.65923
1.83	7.66811
1.84	7.64015
1.85	7.63423
1.86	7.64114
1.87	7.63818
1.88	7.62502
1.89	7.62337
1.9	7.62008
1.91	7.61351
1.92	7.6168
1.93	7.58489
1.94	7.59443
1.95	7.58785
1.96	7.57337
1.97	7.56548
1.98	7.54771
1.99	7.54311
2	7.54903
2.01	7.54936
2.02	7.54311
2.03	7.51942
2.04	7.5214
2.05	7.52304
2.06	7.5112
2.07	7.51515
2.08	7.50462
2.09	7.48883
2.1	7.48982
2.11	7.47205
2.12	7.47765
2.13	7.47765
2.14	7.46219
2.15	7.46087
2.16	7.44179
2.17	7.44245
2.18	7.43817
2.19	7.40363
2.2	7.41679
2.21	7.41942
2.22	7.41251
2.23	7.38686
2.24	7.3964
2.25	7.39014
2.26	7.38093
2.27	7.38587
2.28	7.36449
2.29	7.36942
2.3	7.36054
2.31	7.34837
2.32	7.36284
2.33	7.33389
2.34	7.32633
2.35	7.32172
2.36	7.31449
2.37	7.30725
2.38	7.30363
2.39	7.29672
2.4	7.30429
2.41	7.27698
2.42	7.28948
2.43	7.27337
2.44	7.27896
2.45	7.27205
2.46	7.23554
2.47	7.23915
2.48	7.2533
2.49	7.23126
2.5	7.23718
2.51	7.23323
2.52	7.21021
2.53	7.2135
2.54	7.20593
2.55	7.19705
2.56	7.18948
2.57	7.19442
2.58	7.18521
2.59	7.1806
2.6	7.16678
2.61	7.16349
2.62	7.17336
2.63	7.16382
2.64	7.14244
2.65	7.1306
2.66	7.11777
2.67	7.12303
2.68	7.12863
2.69	7.11941
2.7	7.1079
2.71	7.10593
2.72	7.10033
2.73	7.09112
2.74	7.09573
2.75	7.07862
2.76	7.06316
2.77	7.05856
2.78	7.05691
2.79	7.0477
2.8	7.03915
2.81	7.04606
2.82	7.03158
2.83	7.01678
2.84	7.02632
2.85	7.01875
2.86	7.00691
2.87	7.00329
2.88	6.99638
2.89	6.99178
2.9	6.99671
2.91	6.97796
2.92	6.96053
2.93	6.96678
2.94	6.95329
2.95	6.94408
2.96	6.9454
2.97	6.94605
2.98	6.95099
2.99	6.91974
3	6.92632
3.01	6.92763
3.02	6.91809
3.03	6.91744
3.04	6.9079
3.05	6.89145
3.06	6.88553
3.07	6.87434
3.08	6.88651
3.09	6.86974
3.1	6.87138
3.11	6.86645
3.12	6.85658
3.13	6.85066
3.14	6.8352
3.15	6.84441
3.16	6.8296
3.17	6.81875
3.18	6.81447
3.19	6.82631
3.2	6.82006
3.21	6.79934
3.22	6.79309
3.23	6.78816
3.24	6.78487
3.25	6.78947
3.26	6.77566
3.27	6.7671
3.28	6.76151
3.29	6.75197
3.3	6.74671
3.31	6.7421
3.32	6.73651
3.33	6.73388
3.34	6.7319
3.35	6.72236
3.36	6.72006
3.37	6.72072
3.38	6.71611
3.39	6.70657
3.4	6.68815
3.41	6.69506
3.42	6.68421
3.43	6.67138
3.44	6.66842
3.45	6.66217
3.46	6.66677
3.47	6.66578
3.48	6.64736
3.49	6.65197
3.5	6.63848
3.51	6.62631
3.52	6.62927
3.53	6.63322
3.54	6.62828
3.55	6.61118
3.56	6.60328
3.57	6.60526
3.58	6.60032
3.59	6.59539
3.6	6.59111
3.61	6.60164
3.62	6.58782
3.63	6.57368
3.64	6.57302
3.65	6.56874
3.66	6.56808
3.67	6.55887
3.68	6.55098
3.69	6.55789
3.7	6.55493
3.71	6.54835
3.72	6.52729
3.73	6.53683
3.74	6.52367
3.75	6.51413
3.76	6.49637
3.77	6.49966
3.78	6.49834
3.79	6.49637
3.8	6.49045
3.81	6.49769
3.82	6.48486
3.83	6.47861
3.84	6.4615
3.85	6.45953
3.86	6.4513
3.87	6.44933
3.88	6.45065
3.89	6.45821
3.9	6.4319
3.91	6.42597
3.92	6.42005
3.93	6.41512
3.94	6.41018
3.95	6.39637
3.96	6.40788
3.97	6.39209
3.98	6.38749
3.99	6.38617
4	6.38946
4.01	6.39143
4.02	6.38518
4.03	6.36643
4.04	6.374
4.05	6.35953
4.06	6.35722
4.07	6.35525
4.08	6.34242
4.09	6.3263
4.1	6.33321
4.11	6.32729
4.12	6.324
4.13	6.32334
4.14	6.30229
4.15	6.30985
4.16	6.30229
4.17	6.30591
4.18	6.29406
4.19	6.28748
4.2	6.28288
4.21	6.27367
4.22	6.26643
4.23	6.27367
4.24	6.25788
4.25	6.24702
4.26	6.24538
4.27	6.23913
4.28	6.23123
4.29	6.24801
4.3	6.24209
4.31	6.22794
4.32	6.22498
4.33	6.21248
4.34	6.2138
4.35	6.21511
4.36	6.20031
4.37	6.18485
4.38	6.18551
4.39	6.1786
4.4	6.17959
4.41	6.17202
4.42	6.1684
4.43	6.16413
4.44	6.15064
4.45	6.15656
4.46	6.15031
4.47	6.14899
4.48	6.14537
4.49	6.13452
4.5	6.13353
4.51	6.1388
4.52	6.12893
4.53	6.12301
4.54	6.12037
4.55	6.12004
4.56	6.11643
4.57	6.10853
4.58	6.09669
4.59	6.10129
4.6	6.08879
4.61	6.08057
4.62	6.07465
4.63	6.07432
4.64	6.07827
4.65	6.07103
4.66	6.06083
4.67	6.0582
4.68	6.06544
4.69	6.06017
4.7	6.05031
4.71	6.03879
4.72	6.04044
4.73	6.04077
4.74	6.03715
4.75	6.03123
4.76	6.03813
4.77	6.02794
4.78	6.02695
4.79	6.01379
4.8	6.00425
4.81	5.99307
4.82	6.00787
4.83	6.00655
4.84	6.00491
4.85	6.00063
4.86	5.998
4.87	5.99405
4.88	5.97366
4.89	5.98024
4.9	5.95721
4.91	5.95919
4.92	5.97728
4.93	5.97465
4.94	5.96379
4.95	5.95293
4.96	5.94603
4.97	5.94438
4.98	5.95425
4.99	5.94504
5	5.93616
5.01	5.93024
5.02	5.92168
5.03	5.92728
5.04	5.9151
5.05	5.91116
5.06	5.90129
5.07	5.88484
5.08	5.89109
5.09	5.88978
5.1	5.88912
5.11	5.88122
5.12	5.88024
5.13	5.873
5.14	5.87037
5.15	5.85622
5.16	5.86741
5.17	5.85425
5.18	5.84898
5.19	5.84537
5.2	5.84175
5.21	5.84043
5.22	5.83122
5.23	5.83747
5.24	5.8355
5.25	5.82431
5.26	5.82497
5.27	5.80655
5.28	5.81379
5.29	5.81083
5.3	5.79997
5.31	5.79767
5.32	5.7901
5.33	5.78418
5.34	5.79701
5.35	5.78582
5.36	5.773
5.37	5.77793
5.38	5.77629
5.39	5.76806
5.4	5.76642
5.41	5.76017
5.42	5.76115
5.43	5.75161
5.44	5.74865
5.45	5.7378
5.46	5.73122
5.47	5.74043
5.48	5.73615
5.49	5.73747
5.5	5.73352
5.51	5.73253
5.52	5.71773
5.53	5.71444
5.54	5.7197
5.55	5.70556
5.56	5.71674
5.57	5.70819
5.58	5.71674
5.59	5.70556
5.6	5.69766
5.61	5.68582
5.62	5.69503
5.63	5.69734
5.64	5.68352
5.65	5.68714
5.66	5.67299
5.67	5.65951
5.68	5.67464
5.69	5.66411
5.7	5.66378
5.71	5.65358
5.72	5.66345
5.73	5.65326
5.74	5.65589
5.75	5.65194
5.76	5.65095
5.77	5.63056
5.78	5.63681
5.79	5.63911
5.8	5.62036
5.81	5.6345
5.82	5.64372
5.83	5.62858
5.84	5.60852
5.85	5.61148
5.86	5.60983
5.87	5.61279
5.88	5.60391
5.89	5.59964
5.9	5.59273
5.91	5.59273
5.92	5.59503
5.93	5.59667
5.94	5.57891
5.95	5.59141
5.96	5.58352
5.97	5.56509
5.98	5.56674
5.99	5.56148
6	5.56378
6.01	5.55588
6.02	5.55917
6.03	5.55325
6.04	5.56444
6.05	5.56115
6.06	5.55062
6.07	5.55095
6.08	5.547
6.09	5.54667
6.1	5.53911
6.11	5.53286
6.12	5.5299
6.13	5.53812
6.14	5.52036
6.15	5.51805
6.16	5.52496
6.17	5.51937
6.18	5.50884
6.19	5.51674
6.2	5.50161
6.21	5.51082
6.22	5.49634
6.23	5.49404
6.24	5.48187
6.25	5.48351
6.26	5.48549
6.27	5.47792
6.28	5.48417
6.29	5.48812
6.3	5.49272
6.31	5.46805
6.32	5.47003
6.33	5.47035
6.34	5.45621
6.35	5.45522
6.36	5.45753
6.37	5.46345
6.38	5.45259
6.39	5.44272
6.4	5.44404
6.41	5.43976
6.42	5.45292
6.43	5.44305
6.44	5.42167
6.45	5.42463
6.46	5.43154
6.47	5.43516
6.48	5.4368
6.49	5.43121
6.5	5.41706
6.51	5.42002
6.52	5.42002
6.53	5.41608
6.54	5.41016
6.55	5.42002
6.56	5.41641
6.57	5.40456
6.58	5.40391
6.59	5.39239
6.6	5.39075
6.61	5.39469
6.62	5.38647
6.63	5.38548
6.64	5.3789
6.65	5.38384
6.66	5.38154
6.67	5.3743
6.68	5.3766
6.69	5.36937
6.7	5.36279
6.71	5.37002
6.72	5.35818
6.73	5.36443
6.74	5.35325
6.75	5.34963
6.76	5.35127
6.77	5.34009
6.78	5.34963
6.79	5.3368
6.8	5.33285
6.81	5.34601
6.82	5.33482
6.83	5.32825
6.84	5.31542
6.85	5.32561
6.86	5.32101
6.87	5.32101
6.88	5.32496
6.89	5.32561
6.9	5.31377
6.91	5.30259
6.92	5.31903
6.93	5.30752
6.94	5.30357
6.95	5.29634
6.96	5.29206
6.97	5.30555
6.98	5.29699
6.99	5.29042
7	5.28252
7.01	5.29667
7.02	5.28482
7.03	5.28252
7.04	5.29074
7.05	5.28745
7.06	5.27331
7.07	5.27463
7.08	5.28153
7.09	5.27397
7.1	5.2687
7.11	5.26245
7.12	5.26377
7.13	5.26278
7.14	5.24897
7.15	5.2641
7.16	5.26541
7.17	5.2516
7.18	5.24403
7.19	5.24864
7.2	5.23351
7.21	5.24469
7.22	5.24765
7.23	5.25324
7.24	5.23811
7.25	5.23778
7.26	5.23482
7.27	5.23449
7.28	5.23285
7.29	5.22429
7.3	5.21903
7.31	5.21969
7.32	5.22364
7.33	5.21245
7.34	5.21278
7.35	5.21147
7.36	5.19995
7.37	5.19436
7.38	5.19864
7.39	5.20291
7.4	5.2039
7.41	5.18811
7.42	5.18614
7.43	5.18811
7.44	5.20357
7.45	5.18943
7.46	5.18021
7.47	5.18778
7.48	5.18021
7.49	5.18416
7.5	5.18679
7.51	5.18515
7.52	5.18482
7.53	5.17298
7.54	5.17528
7.55	5.17035
7.56	5.16015
7.57	5.15785
7.58	5.16574
7.59	5.16442
7.6	5.15883
7.61	5.14436
7.62	5.15258
7.63	5.14304
7.64	5.14732
7.65	5.1539
7.66	5.15324
7.67	5.15752
7.68	5.14436
7.69	5.14238
7.7	5.14765
7.71	5.13515
7.72	5.13317
7.73	5.1335
7.74	5.1289
7.75	5.12857
7.76	5.13877
7.77	5.13284
7.78	5.121
7.79	5.13087
7.8	5.12758
7.81	5.12002
7.82	5.121
7.83	5.11409
7.84	5.09501
7.85	5.10949
7.86	5.1039
7.87	5.10225
7.88	5.10258
7.89	5.09633
7.9	5.10126
7.91	5.10291
7.92	5.10159
7.93	5.09798
7.94	5.09304
7.95	5.09304
7.96	5.09271
7.97	5.08778
7.98	5.0858
7.99	5.08087
8	5.08909
8.01	5.08449
8.02	5.08909
8.03	5.08087
8.04	5.06936
8.05	5.07857
8.06	5.06936
8.07	5.06311
8.08	5.06278
8.09	5.06113
8.1	5.06903
8.11	5.06541
8.12	5.05554
8.13	5.04929
8.14	5.0483
8.15	5.04534
8.16	5.0312
8.17	5.03482
8.18	5.046
8.19	5.04238
8.2	5.05587
8.21	5.02758
8.22	5.03482
8.23	5.03712
8.24	5.0358
8.25	5.03843
8.26	5.02626
8.27	5.03153
8.28	5.02067
8.29	5.02429
8.3	5.02067
8.31	5.02396
8.32	5.02133
8.33	5.01014
8.34	5.02034
8.35	5.02199
8.36	5.01935
8.37	5.00653
8.38	5.01837
8.39	5.01672
8.4	5.02166
8.41	5.00521
8.42	5.00455
8.43	5.00225
8.44	5.00981
8.45	5.00389
8.46	5.00356
8.47	4.996
8.48	5.00126
8.49	5.00521
8.5	4.99501
8.51	4.99699
8.52	4.98712
8.53	4.9881
8.54	4.99435
8.55	4.996
8.56	4.98909
8.57	4.98975
8.58	4.98251
8.59	4.99238
8.6	4.99205
8.61	4.98909
8.62	4.99238
8.63	4.99074
8.64	4.99074
8.65	4.97692
8.66	4.98679
8.67	4.98152
8.68	4.97133
8.69	4.98054
8.7	4.97955
8.71	4.98054
8.72	4.97593
8.73	4.97791
8.74	4.97396
8.75	4.97034
8.76	4.96705
8.77	4.97527
8.78	4.97001
8.79	4.95817
8.8	4.95916
8.81	4.97758
8.82	4.96179
8.83	4.9687
8.84	4.96179
8.85	4.96541
8.86	4.96113
8.87	4.94567
8.88	4.95356
8.89	4.95948
8.9	4.96047
8.91	4.94698
8.92	4.94435
8.93	4.946
8.94	4.9483
8.95	4.95751
8.96	4.9404
8.97	4.93777
8.98	4.94863
8.99	4.9506
9	4.93975
9.01	4.93021
9.02	4.92823
9.03	4.9233
9.04	4.92297
9.05	4.92429
9.06	4.92725
9.07	4.92429
9.08	4.93087
9.09	4.91968
9.1	4.91376
9.11	4.92922
9.12	4.91442
9.13	4.91639
9.14	4.91902
9.15	4.91869
9.16	4.90652
9.17	4.90455
9.18	4.90159
9.19	4.89961
9.2	4.89994
9.21	4.90586
9.22	4.90586
9.23	4.89698
9.24	4.89632
9.25	4.88744
9.26	4.89501
9.27	4.87856
9.28	4.89336
9.29	4.90093
9.3	4.90192
9.31	4.89534
9.32	4.88678
9.33	4.88711
9.34	4.89929
9.35	4.88547
9.36	4.86935
9.37	4.88021
9.38	4.88942
9.39	4.88646
9.4	4.8881
9.41	4.8835
9.42	4.87659
9.43	4.87823
9.44	4.87297
9.45	4.87692
9.46	4.87297
9.47	4.8733
9.48	4.88053
9.49	4.88415
9.5	4.86442
9.51	4.87724
9.52	4.86738
9.53	4.86968
9.54	4.86507
9.55	4.86211
9.56	4.86836
9.57	4.8608
9.58	4.87527
9.59	4.86442
9.6	4.85389
9.61	4.86474
9.62	4.84698
9.63	4.85356
9.64	4.85619
9.65	4.85685
9.66	4.85685
9.67	4.85488
9.68	4.85718
9.69	4.85323
9.7	4.83909
9.71	4.84895
9.72	4.84698
9.73	4.8608
9.74	4.85224
9.75	4.84863
9.76	4.84764
9.77	4.8404
9.78	4.82823
9.79	4.83678
9.8	4.83777
9.81	4.8381
9.82	4.83711
9.83	4.84402
9.84	4.84336
9.85	4.83218
9.86	4.83251
9.87	4.83152
9.88	4.82362
9.89	4.82461
9.9	4.82362
9.91	4.83711
9.92	4.8358
9.93	4.82593
9.94	4.83086
9.95	4.81935
9.96	4.82428
9.97	4.82889
9.98	4.83316
9.99	4.82823
10	4.82066
10.01	4.81244
10.02	4.83086
10.03	4.8154
10.04	4.81705
10.05	4.8154
10.06	4.82593
10.07	4.82428
10.08	4.8108
10.09	4.81474
10.1	4.79632
10.11	4.80126
10.12	4.81244
10.13	4.82428
10.14	4.80981
10.15	4.80652
10.16	4.79928
10.17	4.80981
10.18	4.80191
10.19	4.79895
10.2	4.79994
10.21	4.80455
10.22	4.8131
10.23	4.81277
10.24	4.79797
10.25	4.79961
10.26	4.79797
10.27	4.80619
10.28	4.80257
10.29	4.79665
10.3	4.80126
10.31	4.78876
10.32	4.80487
10.33	4.79994
10.34	4.79007
10.35	4.80389
10.36	4.8029
10.37	4.80027
10.38	4.79961
10.39	4.79369
10.4	4.79632
10.41	4.78843
10.42	4.79007
10.43	4.79073
10.44	4.78678
10.45	4.78514
10.46	4.7802
10.47	4.78218
10.48	4.78283
10.49	4.78218
10.5	4.78053
10.51	4.78678
10.52	4.78185
10.53	4.78579
10.54	4.77527
10.55	4.78251
10.56	4.77625
10.57	4.77461
10.58	4.76704
10.59	4.75915
10.6	4.75948
10.61	4.76606
10.62	4.76869
10.63	4.76375
10.64	4.78086
10.65	4.7756
10.66	4.75981
10.67	4.77297
10.68	4.77033
10.69	4.77132
10.7	4.75849
10.71	4.76277
10.72	4.76672
10.73	4.76277
10.74	4.75948
10.75	4.76244
10.76	4.75553
10.77	4.76112
10.78	4.76737
10.79	4.76474
10.8	4.76145
10.81	4.75652
10.82	4.75915
10.83	4.76211
10.84	4.75849
10.85	4.75487
10.86	4.74895
10.87	4.7575
10.88	4.75718
10.89	4.75553
10.9	4.74796
10.91	4.74237
10.92	4.75125
10.93	4.75783
10.94	4.75619
10.95	4.75685
10.96	4.75652
10.97	4.75093
10.98	4.74698
10.99	4.76047
11	4.75421
11.01	4.75685
11.02	4.75454
11.03	4.7381
11.04	4.74073
11.05	4.74468
11.06	4.74796
11.07	4.75948
11.08	4.74665
11.09	4.74106
11.1	4.75093
11.11	4.75323
11.12	4.74731
11.13	4.74171
11.14	4.74139
11.15	4.75093
11.16	4.73908
11.17	4.7325
11.18	4.72954
11.19	4.73316
11.2	4.74435
11.21	4.73546
11.22	4.7381
11.23	4.74007
11.24	4.73744
11.25	4.74237
11.26	4.74073
11.27	4.73777
11.28	4.7279
11.29	4.73941
11.3	4.74566
11.31	4.73217
11.32	4.73514
11.33	4.72658
11.34	4.73152
11.35	4.73415
11.36	4.71408
11.37	4.72527
11.38	4.72757
11.39	4.72889
11.4	4.72658
11.41	4.71967
11.42	4.72132
11.43	4.71935
11.44	4.72428
11.45	4.72165
11.46	4.71046
11.47	4.71737
11.48	4.71967
11.49	4.72691
11.5	4.7177
11.51	4.71112
11.52	4.72165
11.53	4.71902
11.54	4.72362
11.55	4.72329
11.56	4.72132
11.57	4.72658
11.58	4.71441
11.59	4.72362
11.6	4.72987
11.61	4.72691
11.62	4.71967
11.63	4.71606
11.64	4.71737
11.65	4.72296
11.66	4.71803
11.67	4.72231
11.68	4.71573
11.69	4.72231
11.7	4.72362
11.71	4.7131
11.72	4.7154
11.73	4.71869
11.74	4.71671
11.75	4.72329
11.76	4.72823
11.77	4.71441
11.78	4.71211
11.79	4.71178
11.8	4.71277
11.81	4.72494
11.82	4.70849
11.83	4.71342
11.84	4.71638
11.85	4.70158
11.86	4.7075
11.87	4.70323
11.88	4.69731
11.89	4.70717
11.9	4.71375
11.91	4.71375
11.92	4.71671
11.93	4.70027
11.94	4.69467
11.95	4.69862
11.96	4.71277
11.97	4.70619
11.98	4.69796
11.99	4.69665
12	4.67987
12.01	4.695
12.02	4.69994
12.03	4.69336
12.04	4.69698
12.05	4.69796
12.06	4.69467
12.07	4.68579
12.08	4.68941
12.09	4.68875
12.1	4.68053
12.11	4.68777
12.12	4.69303
12.13	4.68744
12.14	4.68875
12.15	4.67954
12.16	4.68053
12.17	4.68678
12.18	4.68678
12.19	4.68546
12.2	4.68119
12.21	4.67954
12.22	4.67987
12.23	4.67592
12.24	4.67329
12.25	4.68809
12.26	4.68382
12.27	4.68349
12.28	4.67625
12.29	4.6779
12.3	4.67888
12.31	4.67921
12.32	4.67954
12.33	4.67855
12.34	4.6802
12.35	4.67559
12.36	4.67329
12.37	4.67296
12.38	4.67329
12.39	4.67066
12.4	4.67757
12.41	4.66967
12.42	4.67461
12.43	4.6848
12.44	4.68415
12.45	4.67362
12.46	4.66276
12.47	4.67592
12.48	4.67296
12.49	4.66836
12.5	4.68349
12.51	4.67888
12.52	4.67724
12.53	4.68053
12.54	4.67198
12.55	4.66704
12.56	4.67757
12.57	4.67263
12.58	4.67987
12.59	4.68415
12.6	4.68184
12.61	4.67724
12.62	4.67527
12.63	4.67033
12.64	4.68546
12.65	4.68217
12.66	4.68349
12.67	4.67855
12.68	4.67296
12.69	4.67461
12.7	4.67132
12.71	4.67461
12.72	4.67263
12.73	4.68053
12.74	4.66901
12.75	4.67329
12.76	4.67428
12.77	4.6723
12.78	4.6575
12.79	4.65553
12.8	4.65651
12.81	4.67494
12.82	4.66013
12.83	4.65553
12.84	4.65224
12.85	4.65026
12.86	4.64434
12.87	4.65191
12.88	4.65487
12.89	4.6575
12.9	4.65783
12.91	4.65915
12.92	4.65816
12.93	4.65388
12.94	4.64632
12.95	4.64796
12.96	4.66013
12.97	4.66079
12.98	4.65355
12.99	4.65454
13	4.65388
13.01	4.65586
13.02	4.6473
13.03	4.65421
13.04	4.6404
13.05	4.65322
13.06	4.6552
13.07	4.64697
13.08	4.65487
13.09	4.6575
13.1	4.65125
13.11	4.65191
13.12	4.64961
13.13	4.6404
13.14	4.65553
13.15	4.66408
13.16	4.64994
13.17	4.65816
13.18	4.65125
13.19	4.65651
13.2	4.64895
13.21	4.64763
13.22	4.64796
13.23	4.64928
13.24	4.6529
13.25	4.65092
13.26	4.64237
13.27	4.65191
13.28	4.6427
13.29	4.64632
13.3	4.64895
13.31	4.64632
13.32	4.65454
13.33	4.6473
13.34	4.65322
13.35	4.64467
13.36	4.64994
13.37	4.645
13.38	4.64138
13.39	4.63415
13.4	4.63743
13.41	4.645
13.42	4.6473
13.43	4.64401
13.44	4.64994
13.45	4.64237
13.46	4.6302
13.47	4.63612
13.48	4.63283
13.49	4.64632
13.5	4.64401
13.51	4.63217
13.52	4.6325
13.53	4.62724
13.54	4.63579
13.55	4.63415
13.56	4.63382
13.57	4.63645
13.58	4.62691
13.59	4.6302
13.6	4.63217
13.61	4.63875
13.62	4.63118
13.63	4.64138
13.64	4.64467
13.65	4.63579
13.66	4.64138
13.67	4.63579
13.68	4.62888
13.69	4.62428
13.7	4.62921
13.71	4.63184
13.72	4.63349
13.73	4.63415
13.74	4.63743
13.75	4.6427
