"BIO-KINE ASCII FILE"
"_COMMENT"	"MOS-500 Spectrometer"
"_COMMENT"	"Kinetics measurement"
"_COMMENT"	"Y Unit : Volt,  X Unit : s"
"_COMMENT"	"Excitation wavelength : 380 nm"
"_COMMENT"	"Fentes bandwidth =  1 nm"
"_COMMENT"	"HV= 850V"
"_COMMENT"	"Timebase  1 =  .01 s   3001 pts"
"_SFM"	"SFM-400 /S  Advanced mode"
"_SFM"	"Ratio : S1: 2.5, S2: 0, S3: 0, S4: 1"
"_SFM"	"Content : S1: , S2: , S3: , S4:"
"_SFM"	"Concentration : S1: , S2: , S3: , S4:"
"_SFM"	"Total volume : 209 µl  Flow : 3.5 mL/s"
"_SFM"	"Acquisition start :  10 ms before stop"
"_SFM"	"cuve=FC-15, s1=10 ml , s2=10 ml , s3=10 ml , s4=1.9 ml"
"_UNITX"	"s"
"_UNITY"	"Volt"
"_DELTAX"	0
"_DATA"
1e-300	0.883364
0.01	1.31298
0.02	1.89985
0.03	2.06926
0.04	2.04985
0.05	2.0959
0.06	2.09229
0.07	2.08604
0.08	2.10051
0.09	2.10084
0.1	2.11367
0.11	2.1061
0.12	2.10248
0.13	2.09985
0.14	2.09064
0.15	2.10084
0.16	2.09821
0.17	2.09229
0.18	2.10347
0.19	2.09854
0.2	2.08735
0.21	2.1038
0.22	2.11564
0.23	2.11959
0.24	2.09854
0.25	2.0959
0.26	2.09689
0.27	2.09327
0.28	2.09163
0.29	2.10248
0.3	2.09952
0.31	2.09755
0.32	2.09163
0.33	2.10347
0.34	2.09196
0.35	2.09163
0.36	2.08538
0.37	2.08406
0.38	2.10314
0.39	2.10544
0.4	2.08735
0.41	2.09689
0.42	2.10314
0.43	2.10841
0.44	2.09097
0.45	2.0936
0.46	2.1015
0.47	2.08209
0.48	2.09623
0.49	2.07814
0.5	2.07748
0.51	2.08669
0.52	2.07584
0.53	2.07748
0.54	2.08373
0.55	2.08176
0.56	2.07518
0.57	2.06893
0.58	2.07551
0.59	2.07979
0.6	2.09459
0.61	2.08077
0.62	2.06761
0.63	2.06926
0.64	2.0515
0.65	2.06104
0.66	2.07847
0.67	2.07814
0.68	2.06104
0.69	2.06696
0.7	2.07156
0.71	2.06729
0.72	2.05544
0.73	2.06104
0.74	2.07715
0.75	2.064
0.76	2.06794
0.77	2.06005
0.78	2.06367
0.79	2.06268
0.8	2.07123
0.81	2.06926
0.82	2.05182
0.83	2.04557
0.84	2.05775
0.85	2.04261
0.86	2.03571
0.87	2.0459
0.88	2.04886
0.89	2.05215
0.9	2.03439
0.91	2.04393
0.92	2.04755
0.93	2.0538
0.94	2.06038
0.95	2.05018
0.96	2.04294
0.97	2.039
0.98	2.04557
0.99	2.05018
1	2.04327
1.01	2.04196
1.02	2.03209
1.03	2.04163
1.04	2.04459
1.05	2.03571
1.06	2.06038
1.07	2.04163
1.08	2.03702
1.09	2.02551
1.1	2.04525
1.11	2.03439
1.12	2.01827
1.13	2.02189
1.14	2.03735
1.15	2.02255
1.16	2.04031
1.17	2.02715
1.18	2.03143
1.19	2.03636
1.2	2.02288
1.21	2.02682
1.22	2.02913
1.23	2.02419
1.24	2.0186
1.25	2.01202
1.26	2.00774
1.27	2.02551
1.28	2.01695
1.29	2.03242
1.3	2.02386
1.31	2.00478
1.32	2.01695
1.33	2.02946
1.34	2.01235
1.35	2.00445
1.36	2.02123
1.37	2.00445
1.38	1.99426
1.39	2.02255
1.4	2.02946
1.41	1.99557
1.42	2.01268
1.43	1.99327
1.44	1.99656
1.45	2.00873
1.46	1.99689
1.47	1.99327
1.48	1.9982
1.49	2.00116
1.5	2.01367
1.51	2.0084
1.52	2.00445
1.53	1.99755
1.54	1.98834
1.55	1.99163
1.56	1.98998
1.57	2.00182
1.58	2.01301
1.59	1.9959
1.6	1.98406
1.61	1.9834
1.62	1.98866
1.63	1.99163
1.64	1.99755
1.65	1.99195
1.66	1.97945
1.67	1.9788
1.68	1.9811
1.69	1.97781
1.7	1.98998
1.71	1.98801
1.72	1.98669
1.73	1.98537
1.74	1.98505
1.75	1.97189
1.76	1.97189
1.77	1.95807
1.78	1.97551
1.79	1.97649
1.8	1.97682
1.81	1.96991
1.82	1.9788
1.83	1.99491
1.84	1.98241
1.85	1.97682
1.86	1.96827
1.87	1.95643
1.88	1.95445
1.89	1.96991
1.9	1.96991
1.91	1.97419
1.92	1.9584
1.93	1.96695
1.94	1.97649
1.95	1.96958
1.96	1.96597
1.97	1.96366
1.98	1.96597
1.99	1.94722
2	1.97123
2.01	1.97386
2.02	1.9561
2.03	1.95939
2.04	1.95873
2.05	1.94754
2.06	1.95445
2.07	1.94228
2.08	1.95643
2.09	1.97189
2.1	1.95116
2.11	1.97386
2.12	1.96958
2.13	1.94327
2.14	1.95807
2.15	1.95314
2.16	1.94853
2.17	1.9561
2.18	1.95511
2.19	1.96202
2.2	1.94557
2.21	1.95873
2.22	1.95577
2.23	1.92748
2.24	1.9436
2.25	1.93998
2.26	1.93965
2.27	1.95149
2.28	1.93603
2.29	1.92879
2.3	1.93998
2.31	1.93932
2.32	1.95248
2.33	1.95051
2.34	1.93899
2.35	1.93866
2.36	1.92287
2.37	1.93439
2.38	1.93702
2.39	1.93143
2.4	1.91925
2.41	1.93044
2.42	1.94458
2.43	1.93932
2.44	1.93143
2.45	1.93833
2.46	1.92847
2.47	1.92386
2.48	1.91794
2.49	1.92682
2.5	1.93175
2.51	1.91629
2.52	1.90478
2.53	1.9232
2.54	1.92945
2.55	1.92682
2.56	1.92649
2.57	1.91136
2.58	1.92353
2.59	1.9186
2.6	1.91958
2.61	1.91662
2.62	1.91103
2.63	1.91761
2.64	1.91235
2.65	1.91366
2.66	1.90906
2.67	1.90642
2.68	1.91103
2.69	1.91235
2.7	1.91564
2.71	1.91761
2.72	1.91037
2.73	1.9084
2.74	1.91498
2.75	1.90873
2.76	1.9061
2.77	1.90971
2.78	1.90807
2.79	1.913
2.8	1.91366
2.81	1.9107
2.82	1.9005
2.83	1.89787
2.84	1.90675
2.85	1.88373
2.86	1.90182
2.87	1.8982
2.88	1.90248
2.89	1.89096
2.9	1.89392
2.91	1.90346
2.92	1.89392
2.93	1.88702
2.94	1.8959
2.95	1.88175
2.96	1.89195
2.97	1.88767
2.98	1.88504
2.99	1.8811
3	1.89458
3.01	1.90248
3.02	1.89294
3.03	1.88603
3.04	1.88044
3.05	1.90873
3.06	1.89261
3.07	1.88537
3.08	1.89491
3.09	1.89557
3.1	1.88932
3.11	1.89689
3.12	1.89228
3.13	1.89327
3.14	1.89524
3.15	1.87123
3.16	1.87682
3.17	1.87386
3.18	1.87649
3.19	1.89985
3.2	1.88603
3.21	1.88307
3.22	1.88899
3.23	1.87484
3.24	1.88373
3.25	1.88373
3.26	1.88274
3.27	1.88077
3.28	1.87879
3.29	1.87517
3.3	1.88307
3.31	1.86136
3.32	1.86892
3.33	1.87912
3.34	1.88438
3.35	1.87386
3.36	1.86695
3.37	1.8607
3.38	1.86827
3.39	1.87024
3.4	1.86958
3.41	1.86892
3.42	1.86662
3.43	1.87188
3.44	1.87452
3.45	1.86596
3.46	1.86267
3.47	1.8584
3.48	1.86859
3.49	1.86563
3.5	1.85511
3.51	1.85609
3.52	1.86136
3.53	1.86202
3.54	1.86465
3.55	1.85873
3.56	1.86958
3.57	1.86563
3.58	1.85478
3.59	1.86202
3.6	1.85807
3.61	1.8505
3.62	1.84984
3.63	1.84984
3.64	1.84524
3.65	1.83701
3.66	1.84787
3.67	1.85675
3.68	1.86004
3.69	1.85873
3.7	1.85346
3.71	1.84557
3.72	1.83701
3.73	1.84392
3.74	1.84425
3.75	1.84261
3.76	1.83833
3.77	1.86004
3.78	1.84491
3.79	1.84392
3.8	1.84162
3.81	1.82813
3.82	1.8357
3.83	1.8357
3.84	1.84162
3.85	1.85248
3.86	1.84557
3.87	1.84491
3.88	1.84195
3.89	1.84162
3.9	1.82419
3.91	1.84063
3.92	1.83373
3.93	1.82419
3.94	1.84688
3.95	1.84063
3.96	1.84096
3.97	1.83274
3.98	1.83142
3.99	1.83504
4	1.83175
4.01	1.83011
4.02	1.82583
4.03	1.84458
4.04	1.83274
4.05	1.81859
4.06	1.83175
4.07	1.84129
4.08	1.82715
4.09	1.82715
4.1	1.81563
4.11	1.82155
4.12	1.81563
4.13	1.83307
4.14	1.82616
4.15	1.8278
4.16	1.82715
4.17	1.82188
4.18	1.82715
4.19	1.83011
4.2	1.83504
4.21	1.81366
4.22	1.81794
4.23	1.82912
4.24	1.8084
4.25	1.82057
4.26	1.81432
4.27	1.81399
4.28	1.82188
4.29	1.82747
4.3	1.81037
4.31	1.8028
4.32	1.81662
4.33	1.81892
4.34	1.81596
4.35	1.81596
4.36	1.81596
4.37	1.81563
4.38	1.80938
4.39	1.82616
4.4	1.83241
4.41	1.82287
4.42	1.8153
4.43	1.80379
4.44	1.80905
4.45	1.80708
4.46	1.8028
4.47	1.8107
4.48	1.80478
4.49	1.79754
4.5	1.78471
4.51	1.79359
4.52	1.79984
4.53	1.79951
4.54	1.79984
4.55	1.79557
4.56	1.79589
4.57	1.79951
4.58	1.80379
4.59	1.81201
4.6	1.79589
4.61	1.78899
4.62	1.80774
4.63	1.80247
4.64	1.80478
4.65	1.79951
4.66	1.80938
4.67	1.79425
4.68	1.79589
4.69	1.8084
4.7	1.79951
4.71	1.80576
4.72	1.80412
4.73	1.80576
4.74	1.79129
4.75	1.79293
4.76	1.78964
4.77	1.79129
4.78	1.78899
4.79	1.79261
4.8	1.79195
4.81	1.77978
4.82	1.77714
4.83	1.77813
4.84	1.8005
4.85	1.79951
4.86	1.78964
4.87	1.77616
4.88	1.78899
4.89	1.78767
4.9	1.78668
4.91	1.79228
4.92	1.79228
4.93	1.78274
4.94	1.78307
4.95	1.77024
4.96	1.7903
4.97	1.78603
4.98	1.78964
4.99	1.78339
5	1.77517
5.01	1.78504
5.02	1.78504
5.03	1.78109
5.04	1.78471
5.05	1.788
5.06	1.78701
5.07	1.77451
5.08	1.78537
5.09	1.77978
5.1	1.78767
5.11	1.77287
5.12	1.79261
5.13	1.78603
5.14	1.77385
5.15	1.76991
5.16	1.76662
5.17	1.78142
5.18	1.7653
5.19	1.77517
5.2	1.77221
5.21	1.77583
5.22	1.7778
5.23	1.75774
5.24	1.76037
5.25	1.75971
5.26	1.76135
5.27	1.76925
5.28	1.77122
5.29	1.75116
5.3	1.77188
5.31	1.76826
5.32	1.76103
5.33	1.75708
5.34	1.75675
5.35	1.76234
5.36	1.75839
5.37	1.77254
5.38	1.77254
5.39	1.76267
5.4	1.76399
5.41	1.7607
5.42	1.74458
5.43	1.7551
5.44	1.7653
5.45	1.7551
5.46	1.7551
5.47	1.75609
5.48	1.74885
5.49	1.77287
5.5	1.77945
5.51	1.76201
5.52	1.75806
5.53	1.76826
5.54	1.75708
5.55	1.75478
5.56	1.76234
5.57	1.74491
5.58	1.7653
5.59	1.75708
5.6	1.75872
5.61	1.74688
5.62	1.74622
5.63	1.75017
5.64	1.75938
5.65	1.7426
5.66	1.75083
5.67	1.74326
5.68	1.7482
5.69	1.75543
5.7	1.74885
5.71	1.73964
5.72	1.74655
5.73	1.7403
5.74	1.74984
5.75	1.74655
5.76	1.74688
5.77	1.74622
5.78	1.7255
5.79	1.74293
5.8	1.74096
5.81	1.74721
5.82	1.73899
5.83	1.74162
5.84	1.74392
5.85	1.7357
5.86	1.73931
5.87	1.74852
5.88	1.74787
5.89	1.7426
5.9	1.73076
5.91	1.72747
5.92	1.73767
5.93	1.74129
5.94	1.73438
5.95	1.73899
5.96	1.73866
5.97	1.73306
5.98	1.73405
5.99	1.74622
6	1.73471
6.01	1.7278
6.02	1.7426
6.03	1.73833
6.04	1.72517
6.05	1.73142
6.06	1.73866
6.07	1.72517
6.08	1.72616
6.09	1.72945
6.1	1.72945
6.11	1.71629
6.12	1.7357
6.13	1.71991
6.14	1.73668
6.15	1.72912
6.16	1.72056
6.17	1.72221
6.18	1.72747
6.19	1.73241
6.2	1.73372
6.21	1.71793
6.22	1.72385
6.23	1.71793
6.24	1.71563
6.25	1.71694
6.26	1.72945
6.27	1.72254
6.28	1.7301
6.29	1.71793
6.3	1.72648
6.31	1.71431
6.32	1.72451
6.33	1.71991
6.34	1.71333
6.35	1.73241
6.36	1.73537
6.37	1.71662
6.38	1.72056
6.39	1.71201
6.4	1.70148
6.41	1.70938
6.42	1.71398
6.43	1.71727
6.44	1.7301
6.45	1.71069
6.46	1.71991
6.47	1.72977
6.48	1.72681
6.49	1.71991
6.5	1.71662
6.51	1.71398
6.52	1.70609
6.53	1.71793
6.54	1.71201
6.55	1.70412
6.56	1.70741
6.57	1.71333
6.58	1.71892
6.59	1.713
6.6	1.72714
6.61	1.72188
6.62	1.71267
6.63	1.71826
6.64	1.70083
6.65	1.71201
6.66	1.72945
6.67	1.71991
6.68	1.70938
6.69	1.713
6.7	1.72089
6.71	1.71366
6.72	1.70642
6.73	1.70675
6.74	1.69392
6.75	1.70017
6.76	1.70412
6.77	1.69819
6.78	1.69819
6.79	1.71497
6.8	1.71069
6.81	1.71398
6.82	1.70938
6.83	1.68964
6.84	1.70839
6.85	1.71366
6.86	1.70083
6.87	1.70083
6.88	1.70313
6.89	1.70115
6.9	1.70181
6.91	1.68964
6.92	1.69951
6.93	1.69787
6.94	1.69556
6.95	1.69787
6.96	1.68833
6.97	1.69227
6.98	1.70839
6.99	1.69326
7	1.69655
7.01	1.70379
7.02	1.69556
7.03	1.70839
7.04	1.70609
7.05	1.69392
7.06	1.68964
7.07	1.69655
7.08	1.68635
7.09	1.68635
7.1	1.69326
7.11	1.7005
7.12	1.71102
7.13	1.70148
7.14	1.69063
7.15	1.70148
7.16	1.69787
7.17	1.68964
7.18	1.68635
7.19	1.68208
7.2	1.68602
7.21	1.69227
7.22	1.68635
7.23	1.69885
7.24	1.70412
7.25	1.68767
7.26	1.68833
7.27	1.69523
7.28	1.68142
7.29	1.68438
7.3	1.69096
7.31	1.6903
7.32	1.67517
7.33	1.68208
7.34	1.69655
7.35	1.68372
7.36	1.66596
7.37	1.67846
7.38	1.67944
7.39	1.68504
7.4	1.67681
7.41	1.67714
7.42	1.67023
7.43	1.67648
7.44	1.68931
7.45	1.68964
7.46	1.69227
7.47	1.67056
7.48	1.68175
7.49	1.67977
7.5	1.68471
7.51	1.68701
7.52	1.68076
7.53	1.67911
7.54	1.67221
7.55	1.66859
7.56	1.67385
7.57	1.66694
7.58	1.67615
7.59	1.69129
7.6	1.67418
7.61	1.6824
7.62	1.67451
7.63	1.67517
7.64	1.66003
7.65	1.68043
7.66	1.67813
7.67	1.67648
7.68	1.6755
7.69	1.67944
7.7	1.6699
7.71	1.6528
7.72	1.67615
7.73	1.68142
7.74	1.66003
7.75	1.66694
7.76	1.68109
7.77	1.68043
7.78	1.68536
7.79	1.6778
7.8	1.663
7.81	1.6653
7.82	1.66892
7.83	1.67056
7.84	1.66826
7.85	1.66892
7.86	1.66629
7.87	1.67451
7.88	1.65346
7.89	1.66892
7.9	1.67089
7.91	1.66135
7.92	1.66398
7.93	1.68504
7.94	1.67451
7.95	1.66727
7.96	1.66431
7.97	1.66135
7.98	1.66365
7.99	1.66267
8	1.67385
8.01	1.66069
8.02	1.66102
8.03	1.663
8.04	1.65444
8.05	1.6551
8.06	1.65938
8.07	1.65444
8.08	1.64424
8.09	1.6574
8.1	1.66234
8.11	1.663
8.12	1.66464
8.13	1.66661
8.14	1.66135
8.15	1.65806
8.16	1.66168
8.17	1.67319
8.18	1.6676
8.19	1.66365
8.2	1.65642
8.21	1.65642
8.22	1.64622
8.23	1.65411
8.24	1.65872
8.25	1.64885
8.26	1.65378
8.27	1.64951
8.28	1.65872
8.29	1.66859
8.3	1.65839
8.31	1.65806
8.32	1.64819
8.33	1.65872
8.34	1.65642
8.35	1.6574
8.36	1.64589
8.37	1.64556
8.38	1.64589
8.39	1.6528
8.4	1.6551
8.41	1.65477
8.42	1.64622
8.43	1.63438
8.44	1.65411
8.45	1.65444
8.46	1.6505
8.47	1.65642
8.48	1.64194
8.49	1.65247
8.5	1.65411
8.51	1.64589
8.52	1.64424
8.53	1.64194
8.54	1.64852
8.55	1.64392
8.56	1.64293
8.57	1.64688
8.58	1.6403
8.59	1.63734
8.6	1.66727
8.61	1.65247
8.62	1.65247
8.63	1.64096
8.64	1.64523
8.65	1.65148
8.66	1.64753
8.67	1.66398
8.68	1.6699
8.69	1.64885
8.7	1.6403
8.71	1.63438
8.72	1.63799
8.73	1.63503
8.74	1.65181
8.75	1.64721
8.76	1.64457
8.77	1.64063
8.78	1.64457
8.79	1.63306
8.8	1.6403
8.81	1.63898
8.82	1.64063
8.83	1.63931
8.84	1.62911
8.85	1.6324
8.86	1.64523
8.87	1.6528
8.88	1.63964
8.89	1.61694
8.9	1.63109
8.91	1.65017
8.92	1.65444
8.93	1.63536
8.94	1.63142
8.95	1.6403
8.96	1.64556
8.97	1.62385
8.98	1.62253
8.99	1.6324
9	1.64622
9.01	1.63931
9.02	1.63372
9.03	1.61859
9.04	1.62023
9.05	1.63207
9.06	1.62089
9.07	1.63471
9.08	1.63273
9.09	1.63701
9.1	1.63076
9.11	1.63569
9.12	1.6222
9.13	1.63503
9.14	1.63799
9.15	1.62319
9.16	1.63339
9.17	1.63438
9.18	1.61924
9.19	1.6324
9.2	1.62451
9.21	1.6324
9.22	1.63405
9.23	1.63043
9.24	1.61727
9.25	1.62418
9.26	1.63207
9.27	1.63471
9.28	1.62155
9.29	1.62418
9.3	1.62484
9.31	1.63372
9.32	1.61892
9.33	1.62023
9.34	1.63372
9.35	1.63174
9.36	1.6176
9.37	1.6301
9.38	1.62451
9.39	1.62056
9.4	1.63471
9.41	1.6301
9.42	1.62582
9.43	1.62319
9.44	1.62549
9.45	1.63668
9.46	1.63569
9.47	1.61859
9.48	1.62451
9.49	1.63602
9.5	1.63799
9.51	1.62582
9.52	1.6324
9.53	1.62911
9.54	1.6278
9.55	1.62089
9.56	1.62418
9.57	1.61069
9.58	1.61266
9.59	1.62582
9.6	1.62023
9.61	1.61168
9.62	1.62517
9.63	1.62517
9.64	1.61892
9.65	1.63701
9.66	1.62484
9.67	1.62813
9.68	1.61793
9.69	1.61793
9.7	1.6301
9.71	1.61563
9.72	1.61727
9.73	1.62517
9.74	1.62023
9.75	1.6301
9.76	1.61661
9.77	1.61661
9.78	1.62089
9.79	1.62319
9.8	1.62418
9.81	1.61365
9.82	1.61069
9.83	1.61595
9.84	1.61069
9.85	1.61793
9.86	1.61595
9.87	1.62319
9.88	1.60806
9.89	1.61924
9.9	1.6199
9.91	1.61793
9.92	1.62747
9.93	1.60707
9.94	1.61069
9.95	1.61892
9.96	1.62253
9.97	1.60181
9.98	1.61826
9.99	1.62089
10	1.61365
10.01	1.61201
10.02	1.62023
10.03	1.60543
10.04	1.60016
10.05	1.61365
10.06	1.61201
10.07	1.61135
10.08	1.61563
10.09	1.61036
10.1	1.60806
10.11	1.61168
10.12	1.61859
10.13	1.61694
10.14	1.61464
10.15	1.62582
10.16	1.60411
10.17	1.60576
10.18	1.60444
10.19	1.59293
10.2	1.60641
10.21	1.61168
10.22	1.60641
10.23	1.6051
10.24	1.59326
10.25	1.59655
10.26	1.60115
10.27	1.59523
10.28	1.60905
10.29	1.59753
10.3	1.60609
10.31	1.61628
10.32	1.61234
10.33	1.60543
10.34	1.60938
10.35	1.61332
10.36	1.60378
10.37	1.60181
10.38	1.61398
10.39	1.61299
10.4	1.59951
10.41	1.61168
10.42	1.61497
10.43	1.60082
10.44	1.6153
10.45	1.61036
10.46	1.60872
10.47	1.59951
10.48	1.59589
10.49	1.60115
10.5	1.6051
10.51	1.60905
10.52	1.60082
10.53	1.60674
10.54	1.60345
10.55	1.59984
10.56	1.61431
10.57	1.59457
10.58	1.59786
10.59	1.60576
10.6	1.6097
10.61	1.6028
10.62	1.59951
10.63	1.60247
10.64	1.60938
10.65	1.60313
10.66	1.59852
10.67	1.59819
10.68	1.58043
10.69	1.58043
10.7	1.59293
10.71	1.59885
10.72	1.5972
10.73	1.60378
10.74	1.60016
10.75	1.60214
10.76	1.60905
10.77	1.60181
10.78	1.5903
10.79	1.59128
10.8	1.61365
10.81	1.61036
10.82	1.60444
10.83	1.59391
10.84	1.58931
10.85	1.59753
10.86	1.59293
10.87	1.60115
10.88	1.59523
10.89	1.59786
10.9	1.60016
10.91	1.61859
10.92	1.59457
10.93	1.60181
10.94	1.59655
10.95	1.58997
10.96	1.59622
10.97	1.58569
10.98	1.59622
10.99	1.60477
11	1.5949
11.01	1.59326
11.02	1.58766
11.03	1.60082
11.04	1.59556
11.05	1.59819
11.06	1.59687
11.07	1.60115
11.08	1.58437
11.09	1.5824
11.1	1.58207
11.11	1.59852
11.12	1.58832
11.13	1.58898
11.14	1.59951
11.15	1.60576
11.16	1.59391
11.17	1.58734
11.18	1.58865
11.19	1.5926
11.2	1.59391
11.21	1.59391
11.22	1.58273
11.23	1.58503
11.24	1.58372
11.25	1.59556
11.26	1.58602
11.27	1.57352
11.28	1.58372
11.29	1.58931
11.3	1.59293
11.31	1.57977
11.32	1.57582
11.33	1.58997
11.34	1.58799
11.35	1.60016
11.36	1.58405
11.37	1.57549
11.38	1.58569
11.39	1.59457
11.4	1.59062
11.41	1.59194
11.42	1.58207
11.43	1.59556
11.44	1.59984
11.45	1.58865
11.46	1.5926
11.47	1.59194
11.48	1.58569
11.49	1.59326
11.5	1.59885
11.51	1.58569
11.52	1.56431
11.53	1.5824
11.54	1.58405
11.55	1.57747
11.56	1.57122
11.57	1.59194
11.58	1.58141
11.59	1.57615
11.6	1.57122
11.61	1.57155
11.62	1.58043
11.63	1.57516
11.64	1.57516
11.65	1.56957
11.66	1.57023
11.67	1.57352
11.68	1.57187
11.69	1.57549
11.7	1.57648
11.71	1.58076
11.72	1.58898
11.73	1.58766
11.74	1.58964
11.75	1.58569
11.76	1.57878
11.77	1.57516
11.78	1.58437
11.79	1.58931
11.8	1.59194
11.81	1.58437
11.82	1.56332
11.83	1.57714
11.84	1.58503
11.85	1.57878
11.86	1.59128
11.87	1.57878
11.88	1.5824
11.89	1.57648
11.9	1.59293
11.91	1.59885
11.92	1.56957
11.93	1.56332
11.94	1.57352
11.95	1.58141
11.96	1.58108
11.97	1.5676
11.98	1.57648
11.99	1.57845
12	1.56727
12.01	1.57253
12.02	1.57944
12.03	1.57714
12.04	1.56497
12.05	1.56628
12.06	1.57582
12.07	1.5801
12.08	1.57549
12.09	1.57911
12.1	1.58635
12.11	1.57483
12.12	1.57023
12.13	1.57023
12.14	1.57319
12.15	1.57812
12.16	1.5847
12.17	1.56299
12.18	1.56365
12.19	1.57187
12.2	1.56431
12.21	1.57648
12.22	1.57516
12.23	1.57845
12.24	1.57418
12.25	1.57286
12.26	1.57845
12.27	1.57023
12.28	1.57483
12.29	1.57418
12.3	1.56595
12.31	1.56497
12.32	1.57056
12.33	1.5778
12.34	1.5676
12.35	1.56497
12.36	1.55674
12.37	1.57418
12.38	1.57056
12.39	1.57056
12.4	1.56398
12.41	1.5676
12.42	1.56924
12.43	1.56694
12.44	1.57977
12.45	1.57451
12.46	1.56628
12.47	1.57253
12.48	1.57615
12.49	1.56957
12.5	1.55937
12.51	1.5778
12.52	1.56266
12.53	1.57089
12.54	1.56858
12.55	1.56529
12.56	1.56431
12.57	1.57023
12.58	1.55839
12.59	1.57681
12.6	1.56858
12.61	1.57056
12.62	1.56891
12.63	1.57253
12.64	1.5699
12.65	1.56069
12.66	1.57385
12.67	1.56858
12.68	1.57451
12.69	1.56628
12.7	1.57845
12.71	1.58306
12.72	1.56398
12.73	1.56464
12.74	1.57977
12.75	1.56727
12.76	1.56365
12.77	1.56628
12.78	1.56793
12.79	1.56365
12.8	1.56069
12.81	1.5574
12.82	1.56529
12.83	1.56694
12.84	1.56201
12.85	1.57615
12.86	1.57122
12.87	1.56464
12.88	1.57483
12.89	1.57648
12.9	1.57845
12.91	1.56924
12.92	1.5676
12.93	1.57155
12.94	1.56529
12.95	1.56135
12.96	1.56727
12.97	1.56332
12.98	1.55773
12.99	1.56826
13	1.56266
13.01	1.55937
13.02	1.56233
13.03	1.56595
13.04	1.57385
13.05	1.53964
13.06	1.56201
13.07	1.56233
13.08	1.56233
13.09	1.54556
13.1	1.56365
13.11	1.56727
13.12	1.55247
13.13	1.55148
13.14	1.56233
13.15	1.56464
13.16	1.56858
13.17	1.5676
13.18	1.5597
13.19	1.57187
13.2	1.55345
13.21	1.55773
13.22	1.55904
13.23	1.56661
13.24	1.55904
13.25	1.56332
13.26	1.55378
13.27	1.56233
13.28	1.56003
13.29	1.54983
13.3	1.56694
13.31	1.56727
13.32	1.55872
13.33	1.55312
13.34	1.56694
13.35	1.56135
13.36	1.5495
13.37	1.5472
13.38	1.57155
13.39	1.56102
13.4	1.56135
13.41	1.5574
13.42	1.55576
13.43	1.5597
13.44	1.55214
13.45	1.55049
13.46	1.5449
13.47	1.55937
13.48	1.55378
13.49	1.56201
13.5	1.56398
13.51	1.5597
13.52	1.55937
13.53	1.54983
13.54	1.55345
13.55	1.55576
13.56	1.55378
13.57	1.56431
13.58	1.57089
13.59	1.55477
13.6	1.55543
13.61	1.55674
13.62	1.55608
13.63	1.55312
13.64	1.54358
13.65	1.54622
13.66	1.55806
13.67	1.54457
13.68	1.55641
13.69	1.56398
13.7	1.55312
13.71	1.55839
13.72	1.56332
13.73	1.56135
13.74	1.56398
