"BIO-KINE ASCII FILE"
"_COMMENT"	"MOS-500 Spectrometer"
"_COMMENT"	"Kinetics measurement"
"_COMMENT"	"Y Unit : Volt,  X Unit : s"
"_COMMENT"	"Excitation wavelength : 340 nm"
"_COMMENT"	"Fentes bandwidth =  1 nm"
"_COMMENT"	"HV= 800V"
"_COMMENT"	"Timebase  1 =  .01 s   3001 pts"
"_SFM"	"SFM-400 /S  Advanced mode"
"_SFM"	"Ratio : S1: 2.5, S2: 0, S3: 0, S4: 1"
"_SFM"	"Content : S1: , S2: , S3: , S4:"
"_SFM"	"Concentration : S1: , S2: , S3: , S4:"
"_SFM"	"Total volume : 209 µl  Flow : 3.5 mL/s"
"_SFM"	"Acquisition start :  10 ms before stop"
"_SFM"	"cuve=FC-15, s1=10 ml , s2=10 ml , s3=10 ml , s4=1.9 ml"
"_UNITX"	"s"
"_UNITY"	"Volt"
"_DELTAX"	0
"_DATA"
1e-300	7.68818
0.01	7.50692
0.02	7.5566
0.03	7.6112
0.04	7.58357
0.05	7.59114
0.06	7.59443
0.07	7.57272
0.08	7.57568
0.09	7.57929
0.1	7.57008
0.11	7.60594
0.12	7.60627
0.13	7.61416
0.14	7.63127
0.15	7.61416
0.16	7.58949
0.17	7.63094
0.18	7.62699
0.19	7.61548
0.2	7.62502
0.21	7.63818
0.22	7.63061
0.23	7.62666
0.24	7.64212
0.25	7.64278
0.26	7.63785
0.27	7.66022
0.28	7.68193
0.29	7.66581
0.3	7.65693
0.31	7.65002
0.32	7.64805
0.33	7.65956
0.34	7.66943
0.35	7.67107
0.36	7.68226
0.37	7.67173
0.38	7.68884
0.39	7.67667
0.4	7.68061
0.41	7.69377
0.42	7.69772
0.43	7.71088
0.44	7.71022
0.45	7.68917
0.46	7.68982
0.47	7.72436
0.48	7.7043
0.49	7.72009
0.5	7.69903
0.51	7.71219
0.52	7.71746
0.53	7.7293
0.54	7.71055
0.55	7.73028
0.56	7.72371
0.57	7.73884
0.58	7.74673
0.59	7.75463
0.6	7.75989
0.61	7.7543
0.62	7.72239
0.63	7.73752
0.64	7.76417
0.65	7.76877
0.66	7.73423
0.67	7.76121
0.68	7.76483
0.69	7.76943
0.7	7.76121
0.71	7.76154
0.72	7.75923
0.73	7.75265
0.74	7.76219
0.75	7.78259
0.76	7.77305
0.77	7.78094
0.78	7.7714
0.79	7.78062
0.8	7.77765
0.81	7.79706
0.82	7.80989
0.83	7.80101
0.84	7.78588
0.85	7.80562
0.86	7.78522
0.87	7.80331
0.88	7.79706
0.89	7.80693
0.9	7.80693
0.91	7.8145
0.92	7.80792
0.93	7.82206
0.94	7.83292
0.95	7.8191
0.96	7.82996
0.97	7.80627
0.98	7.82272
0.99	7.80068
1	7.84937
1.01	7.84509
1.02	7.84048
1.03	7.83687
1.04	7.83588
1.05	7.83489
1.06	7.86252
1.07	7.84641
1.08	7.83325
1.09	7.83259
1.1	7.85595
1.11	7.85002
1.12	7.87897
1.13	7.84871
1.14	7.84641
1.15	7.85331
1.16	7.87437
1.17	7.8793
1.18	7.89016
1.19	7.87864
1.2	7.87042
1.21	7.87206
1.22	7.8941
1.23	7.88983
1.24	7.87503
1.25	7.88193
1.26	7.8941
1.27	7.90628
1.28	7.91647
1.29	7.90924
1.3	7.91286
1.31	7.91812
1.32	7.91647
1.33	7.91779
1.34	7.91614
1.35	7.94345
1.36	7.93786
1.37	7.92009
1.38	7.92996
1.39	7.96088
1.4	7.94443
1.41	7.94378
1.42	7.93292
1.43	7.93391
1.44	7.94904
1.45	7.96286
1.46	7.94312
1.47	7.94805
1.48	7.96516
1.49	7.94147
1.5	7.94674
1.51	7.95266
1.52	7.93555
1.53	7.94805
1.54	7.98391
1.55	7.95463
1.56	7.97733
1.57	7.99049
1.58	8.0145
1.59	8.00595
1.6	7.99115
1.61	7.97865
1.62	7.98292
1.63	7.98819
1.64	7.97766
1.65	7.98621
1.66	7.98029
1.67	7.9997
1.68	7.99246
1.69	7.99345
1.7	8.00727
1.71	8.02569
1.72	7.98819
1.73	8.00299
1.74	8.01023
1.75	8.04049
1.76	8.03621
1.77	8.00496
1.78	8.01319
1.79	8.01944
1.8	8.01516
1.81	8.03424
1.82	8.00299
1.83	8.05069
1.84	8.05496
1.85	8.04082
1.86	8.04641
1.87	8.04937
1.88	8.0497
1.89	8.05299
1.9	8.04937
1.91	8.05529
1.92	8.05661
1.93	8.05924
1.94	8.04773
1.95	8.05135
1.96	8.06681
1.97	8.05628
1.98	8.06516
1.99	8.06746
2	8.0747
2.01	8.07832
2.02	8.07536
2.03	8.07569
2.04	8.08128
2.05	8.07832
2.06	8.10891
2.07	8.08819
2.08	8.06319
2.09	8.102
2.1	8.10825
2.11	8.08852
2.12	8.08161
2.13	8.10858
2.14	8.10464
2.15	8.09707
2.16	8.10069
2.17	8.11812
2.18	8.10825
2.19	8.09773
2.2	8.11747
2.21	8.12964
2.22	8.11977
2.23	8.11747
2.24	8.09543
2.25	8.11615
2.26	8.11812
2.27	8.11187
2.28	8.15727
2.29	8.14608
2.3	8.12273
2.31	8.12865
2.32	8.13556
2.33	8.17043
2.34	8.14444
2.35	8.17964
2.36	8.15102
2.37	8.15957
2.38	8.17405
2.39	8.16418
2.4	8.1372
2.41	8.15826
2.42	8.16845
2.43	8.2053
2.44	8.17273
2.45	8.18655
2.46	8.19378
2.47	8.16845
2.48	8.17701
2.49	8.17668
2.5	8.16944
2.51	8.15398
2.52	8.18556
2.53	8.17931
2.54	8.19872
2.55	8.18424
2.56	8.18424
2.57	8.17635
2.58	8.1803
2.59	8.18786
2.6	8.19378
2.61	8.20826
2.62	8.22734
2.63	8.19905
2.64	8.19543
2.65	8.21878
2.66	8.21615
2.67	8.21813
2.68	8.23984
2.69	8.20563
2.7	8.20563
2.71	8.22109
2.72	8.23424
2.73	8.23753
2.74	8.23951
2.75	8.22372
2.76	8.20398
2.77	8.21286
2.78	8.23424
2.79	8.27701
2.8	8.25924
2.81	8.25464
2.82	8.25464
2.83	8.23161
2.84	8.26122
2.85	8.2803
2.86	8.25102
2.87	8.26517
2.88	8.24543
2.89	8.25497
2.9	8.27207
2.91	8.26484
2.92	8.27109
2.93	8.25628
2.94	8.25694
2.95	8.25727
2.96	8.2826
2.97	8.27339
2.98	8.2826
2.99	8.26385
3	8.25793
3.01	8.27569
3.02	8.29181
3.03	8.27569
3.04	8.29082
3.05	8.29872
3.06	8.27898
3.07	8.29411
3.08	8.27701
3.09	8.29346
3.1	8.30036
3.11	8.29444
3.12	8.29346
3.13	8.32602
3.14	8.30431
3.15	8.30431
3.16	8.30234
3.17	8.28655
3.18	8.28096
3.19	8.27043
3.2	8.29379
3.21	8.32471
3.22	8.31681
3.23	8.31221
3.24	8.31911
3.25	8.328
3.26	8.32471
3.27	8.33161
3.28	8.30661
3.29	8.30826
3.3	8.3474
3.31	8.34379
3.32	8.34543
3.33	8.34444
3.34	8.34017
3.35	8.34083
3.36	8.32602
3.37	8.33556
3.38	8.36977
3.39	8.35859
3.4	8.34181
3.41	8.35102
3.42	8.34872
3.43	8.35958
3.44	8.37734
3.45	8.37208
3.46	8.36188
3.47	8.37537
3.48	8.38655
3.49	8.3701
3.5	8.36418
3.51	8.36846
3.52	8.3951
3.53	8.36616
3.54	8.36846
3.55	8.37537
3.56	8.38754
3.57	8.40234
3.58	8.39708
3.59	8.3882
3.6	8.41287
3.61	8.41912
3.62	8.39971
3.63	8.39971
3.64	8.38096
3.65	8.38918
3.66	8.39477
3.67	8.4076
3.68	8.41912
3.69	8.40695
3.7	8.40464
3.71	8.40398
3.72	8.41122
3.73	8.41122
3.74	8.4178
3.75	8.42208
3.76	8.43063
3.77	8.41089
3.78	8.41649
3.79	8.42635
3.8	8.42899
3.81	8.44971
3.82	8.44839
3.83	8.44247
3.84	8.45168
3.85	8.44379
3.86	8.42208
3.87	8.44971
3.88	8.45662
3.89	8.4303
3.9	8.44642
3.91	8.4155
3.92	8.41879
3.93	8.4553
3.94	8.4553
3.95	8.45168
3.96	8.46221
3.97	8.478
3.98	8.45892
3.99	8.47307
4	8.46254
4.01	8.44313
4.02	8.47208
4.03	8.453
4.04	8.47241
4.05	8.45234
4.06	8.46583
4.07	8.46583
4.08	8.48524
4.09	8.46484
4.1	8.49017
4.11	8.49543
4.12	8.49938
4.13	8.50629
4.14	8.48326
4.15	8.46879
4.16	8.49576
4.17	8.50037
4.18	8.49675
4.19	8.50201
4.2	8.49708
4.21	8.49872
4.22	8.49938
4.23	8.49214
4.24	8.49741
4.25	8.53754
4.26	8.52471
4.27	8.51583
4.28	8.50695
4.29	8.50563
4.3	8.49379
4.31	8.51418
4.32	8.52997
4.33	8.52438
4.34	8.52767
4.35	8.54313
4.36	8.52504
4.37	8.54215
4.38	8.54544
4.39	8.51517
4.4	8.55432
4.41	8.54741
4.42	8.5359
4.43	8.52307
4.44	8.54905
4.45	8.55629
4.46	8.53162
4.47	8.54708
4.48	8.55925
4.49	8.53721
4.5	8.51747
4.51	8.54478
4.52	8.56287
4.53	8.53886
4.54	8.57241
4.55	8.56353
4.56	8.56057
4.57	8.55695
4.58	8.56386
4.59	8.55925
4.6	8.54511
4.61	8.55498
4.62	8.55136
4.63	8.5484
4.64	8.55859
4.65	8.54971
4.66	8.55498
4.67	8.58721
4.68	8.57965
4.69	8.58195
4.7	8.56649
4.71	8.56123
4.72	8.55136
4.73	8.57965
4.74	8.57471
4.75	8.60333
4.76	8.58294
4.77	8.59478
4.78	8.58655
4.79	8.57734
4.8	8.58557
4.81	8.58294
4.82	8.60004
4.83	8.5859
4.84	8.59741
4.85	8.5928
4.86	8.58655
4.87	8.5905
4.88	8.59248
4.89	8.59873
4.9	8.5803
4.91	8.58952
4.92	8.60399
4.93	8.59346
4.94	8.60859
4.95	8.61254
4.96	8.59741
4.97	8.5928
4.98	8.60728
4.99	8.62438
5	8.64708
5.01	8.63195
5.02	8.59313
5.03	8.59971
5.04	8.60333
5.05	8.5905
5.06	8.61024
5.07	8.60695
5.08	8.63524
5.09	8.63162
5.1	8.63096
5.11	8.62109
5.12	8.61188
5.13	8.63294
5.14	8.62208
5.15	8.63228
5.16	8.61879
5.17	8.63425
5.18	8.6359
5.19	8.64215
5.2	8.64971
5.21	8.62406
5.22	8.66517
5.23	8.64938
5.24	8.65465
5.25	8.65564
5.26	8.64478
5.27	8.64675
5.28	8.65136
5.29	8.63623
5.3	8.64248
5.31	8.65958
5.32	8.65267
5.33	8.65728
5.34	8.65925
5.35	8.66057
5.36	8.63952
5.37	8.66517
5.38	8.66649
5.39	8.67406
5.4	8.64741
5.41	8.6609
5.42	8.67998
5.43	8.65794
5.44	8.65432
5.45	8.66057
5.46	8.69478
5.47	8.67307
5.48	8.66517
5.49	8.66517
5.5	8.653
5.51	8.65925
5.52	8.67932
5.53	8.67735
5.54	8.68721
5.55	8.6655
5.56	8.68195
5.57	8.68425
5.58	8.69939
5.59	8.69018
5.6	8.70925
5.61	8.6961
5.62	8.69379
5.63	8.68689
5.64	8.69675
5.65	8.70761
5.66	8.68689
5.67	8.70531
5.68	8.71616
5.69	8.68985
5.7	8.68623
5.71	8.67471
5.72	8.69675
5.73	8.69281
5.74	8.68557
5.75	8.68261
5.76	8.70794
5.77	8.73853
5.78	8.70695
5.79	8.7109
5.8	8.74577
5.81	8.7211
5.82	8.72768
5.83	8.71353
5.84	8.72932
5.85	8.72866
5.86	8.70794
5.87	8.71386
5.88	8.72208
5.89	8.70991
5.9	8.73294
5.91	8.71419
5.92	8.73294
5.93	8.71287
5.94	8.70893
5.95	8.74018
5.96	8.7484
5.97	8.72373
5.98	8.71485
5.99	8.71518
6	8.7484
6.01	8.71978
6.02	8.73426
6.03	8.74379
6.04	8.77669
6.05	8.7586
6.06	8.72603
6.07	8.72965
6.08	8.72439
6.09	8.72998
6.1	8.73656
6.11	8.75662
6.12	8.7688
6.13	8.75268
6.14	8.73327
6.15	8.74379
6.16	8.73458
6.17	8.77866
6.18	8.76156
6.19	8.74774
6.2	8.75366
6.21	8.76551
6.22	8.76353
6.23	8.76156
6.24	8.75333
6.25	8.77834
6.26	8.75958
6.27	8.75268
6.28	8.73557
6.29	8.76912
6.3	8.78031
6.31	8.79281
6.32	8.75399
6.33	8.76583
6.34	8.77176
6.35	8.78327
6.36	8.77834
6.37	8.77406
6.38	8.77702
6.39	8.76847
6.4	8.76386
6.41	8.75794
6.42	8.79741
6.43	8.77801
6.44	8.7859
6.45	8.79873
6.46	8.78524
6.47	8.7757
6.48	8.76583
6.49	8.78557
6.5	8.77406
6.51	8.77208
6.52	8.77472
6.53	8.7711
6.54	8.79281
6.55	8.7984
6.56	8.80597
6.57	8.81682
6.58	8.80202
6.59	8.79643
6.6	8.80663
6.61	8.80202
6.62	8.77866
6.63	8.81353
6.64	8.82998
6.65	8.78294
6.66	8.81748
6.67	8.79347
6.68	8.81123
6.69	8.81353
6.7	8.78952
6.71	8.80432
6.72	8.80991
6.73	8.80498
6.74	8.80531
6.75	8.81945
6.76	8.83327
6.77	8.82702
6.78	8.82307
6.79	8.81682
6.8	8.79412
6.81	8.79051
6.82	8.79511
6.83	8.81682
6.84	8.8211
6.85	8.83327
6.86	8.79741
6.87	8.8257
6.88	8.80761
6.89	8.79478
6.9	8.83195
6.91	8.83722
6.92	8.84939
6.93	8.82077
6.94	8.81978
6.95	8.7984
6.96	8.83195
6.97	8.8609
6.98	8.83557
6.99	8.83788
7	8.82176
7.01	8.8484
7.02	8.81814
7.03	8.81616
7.04	8.82505
7.05	8.85399
7.06	8.84906
7.07	8.82439
7.08	8.85136
7.09	8.85696
7.1	8.8257
7.11	8.83031
7.12	8.85202
7.13	8.85432
7.14	8.84807
7.15	8.8382
7.16	8.8563
7.17	8.84709
7.18	8.85367
7.19	8.84742
7.2	8.85926
7.21	8.87867
7.22	8.84577
7.23	8.85465
7.24	8.87603
7.25	8.86485
7.26	8.85531
7.27	8.84939
7.28	8.85531
7.29	8.84742
7.3	8.87834
7.31	8.87176
7.32	8.86748
7.33	8.86288
7.34	8.85136
7.35	8.86551
7.36	8.86649
7.37	8.84544
7.38	8.85498
7.39	8.84676
7.4	8.86781
7.41	8.88031
7.42	8.87307
7.43	8.86584
7.44	8.85103
7.45	8.8586
7.46	8.87965
7.47	8.85334
7.48	8.85761
7.49	8.88985
7.5	8.89742
7.51	8.86321
7.52	8.88064
7.53	8.89511
7.54	8.87044
7.55	8.87867
7.56	8.89281
7.57	8.88722
7.58	8.87834
7.59	8.88163
7.6	8.87571
7.61	8.86814
7.62	8.89709
7.63	8.88426
7.64	8.89413
7.65	8.87965
7.66	8.87077
7.67	8.88064
7.68	8.86748
7.69	8.88952
7.7	8.87077
7.71	8.87176
7.72	8.88557
7.73	8.89215
7.74	8.89347
7.75	8.89742
7.76	8.88919
7.77	8.879
7.78	8.89051
7.79	8.88755
7.8	8.91518
7.81	8.90761
7.82	8.89215
7.83	8.87406
7.84	8.90104
7.85	8.88294
7.86	8.90202
7.87	8.90498
7.88	8.91123
7.89	8.89577
7.9	8.8984
7.91	8.92439
7.92	8.91255
7.93	8.91748
7.94	8.89939
7.95	8.91189
7.96	8.90893
7.97	8.90564
7.98	8.91057
7.99	8.91189
8	8.88821
8.01	8.90761
8.02	8.92801
8.03	8.88163
8.04	8.89544
8.05	8.90959
8.06	8.94281
8.07	8.90432
8.08	8.90005
8.09	8.90663
8.1	8.90367
8.11	8.90564
8.12	8.90926
8.13	8.92538
8.14	8.9359
8.15	8.89084
8.16	8.92242
8.17	8.91354
8.18	8.92472
8.19	8.91518
8.2	8.92636
8.21	8.93919
8.22	8.92242
8.23	8.91025
8.24	8.90663
8.25	8.93459
8.26	8.93031
8.27	8.89347
8.28	8.88821
8.29	8.88886
8.3	8.90564
8.31	8.92011
8.32	8.93327
8.33	8.92176
8.34	8.9336
8.35	8.94446
8.36	8.93985
8.37	8.93229
8.38	8.91551
8.39	8.91617
8.4	8.89906
8.41	8.91354
8.42	8.93261
8.43	8.93196
8.44	8.92669
8.45	8.92636
8.46	8.9109
8.47	8.90136
8.48	8.92636
8.49	8.97472
8.5	8.96288
8.51	8.95268
8.52	8.93525
8.53	8.93031
8.54	8.94183
8.55	8.95334
8.56	8.93393
8.57	8.93821
8.58	8.94577
8.59	8.94117
8.6	8.93558
8.61	8.93985
8.62	8.92307
8.63	8.95498
8.64	8.93755
8.65	8.92011
8.66	8.93952
8.67	8.94906
8.68	8.95104
8.69	8.93294
8.7	8.94248
8.71	8.94643
8.72	8.94281
8.73	8.94314
8.74	8.9461
8.75	8.94314
8.76	8.97439
8.77	8.96485
8.78	8.96058
8.79	8.9734
8.8	8.95597
8.81	8.93492
8.82	8.94577
8.83	8.95268
8.84	8.96288
8.85	8.98196
8.86	8.96288
8.87	8.95696
8.88	8.9415
8.89	8.96387
8.9	8.9563
8.91	8.97768
8.92	8.97242
8.93	8.97143
8.94	8.95169
8.95	8.97308
8.96	8.9665
8.97	8.99117
8.98	8.9711
8.99	8.97637
9	8.96748
9.01	8.98656
9.02	8.96156
9.03	8.9609
9.04	8.96156
9.05	8.97275
9.06	8.97012
9.07	8.96946
9.08	8.96452
9.09	8.97933
9.1	8.9461
9.11	8.97406
9.12	8.99643
9.13	8.9813
9.14	8.98031
9.15	8.97505
9.16	8.97505
9.17	8.96551
9.18	8.97637
9.19	8.97012
9.2	8.96847
9.21	8.96321
9.22	8.96123
9.23	8.96354
9.24	8.97801
9.25	8.97933
9.26	8.98821
9.27	8.98887
9.28	8.97637
9.29	8.96715
9.3	8.98722
9.31	8.96321
9.32	8.9711
9.33	8.979
9.34	8.979
9.35	8.9961
9.36	8.9711
9.37	8.98887
9.38	9.00498
9.39	8.97571
9.4	8.99314
9.41	9.00038
9.42	9.02275
9.43	8.98887
9.44	8.98755
9.45	8.96979
9.46	8.98097
9.47	8.99544
9.48	9.00433
9.49	9.00071
9.5	9.00202
9.51	9.00137
9.52	8.9813
9.53	8.98985
9.54	8.97702
9.55	8.98459
9.56	9.00005
9.57	8.98459
9.58	8.96748
9.59	8.9813
9.6	9.00005
9.61	8.97966
9.62	8.99709
9.63	8.9961
9.64	8.97604
9.65	8.98492
9.66	9.01716
9.67	8.98525
9.68	8.98755
9.69	9.00071
9.7	8.99018
9.71	8.97505
9.72	8.9961
9.73	8.98919
9.74	8.98656
9.75	9.00367
9.76	8.97044
9.77	8.96123
9.78	8.97176
9.79	9.00038
9.8	9.00301
9.81	9.00005
9.82	8.9915
9.83	9.01354
9.84	9.01716
9.85	8.98097
9.86	8.99183
9.87	9.00235
9.88	9.00762
9.89	8.98755
9.9	9.00334
9.91	9.02341
9.92	9.00827
9.93	9.01551
9.94	8.979
9.95	8.99512
9.96	9.00301
9.97	9.03262
9.98	9.00564
9.99	9.01748
10	9.00301
10.01	8.99479
10.02	9.00498
10.03	9.01485
10.04	9.02538
10.05	9.02538
10.06	9.00038
10.07	9.00104
10.08	8.99183
10.09	8.99841
10.1	9.00433
10.11	9.01058
10.12	9.0063
10.13	9.01222
10.14	8.9915
10.15	9.01617
10.16	8.98327
10.17	8.99018
10.18	8.99347
10.19	8.99742
10.2	9.01683
10.21	9.03196
10.22	9.01683
10.23	9.01189
10.24	9.00268
10.25	9.01354
10.26	9.02505
10.27	9.00597
10.28	9.03854
10.29	9.03821
10.3	9.00005
10.31	9.01189
10.32	8.99906
10.33	9.02012
10.34	8.99906
10.35	9.01584
10.36	8.99972
10.37	9.0188
10.38	9.00926
10.39	9.03196
10.4	9.01354
10.41	9.00959
10.42	8.99709
10.43	9.02999
10.44	9.03788
10.45	9.0165
10.46	8.99808
10.47	9.01091
10.48	9.02604
10.49	9.02406
10.5	9.02012
10.51	9.03821
10.52	9.02045
10.53	9.01913
10.54	9.0188
10.55	9.03393
10.56	9.01814
10.57	9.02077
10.58	9.00762
10.59	9.01551
10.6	9.01222
10.61	9.00531
10.62	9.02242
10.63	9.02571
10.64	9.02505
10.65	9.02341
10.66	9.01485
10.67	9.01847
10.68	9.02012
10.69	9.01485
10.7	9.03459
10.71	9.03163
10.72	9.04216
10.73	9.01683
10.74	9.0211
10.75	9.02373
10.76	9.0211
10.77	9.05137
10.78	9.02735
10.79	9.02637
10.8	9.03821
10.81	9.02242
10.82	9.05828
10.83	9.05301
10.84	9.0165
10.85	9.04676
10.86	9.03887
10.87	9.06913
10.88	9.03821
10.89	9.01847
10.9	9.04775
10.91	9.04972
10.92	9.03591
10.93	9.04643
10.94	9.04906
10.95	9.07341
10.96	9.05959
10.97	9.029
10.98	9.03788
10.99	9.03821
11	9.05762
11.01	9.06387
11.02	9.03591
11.03	9.04545
11.04	9.07308
11.05	9.05762
11.06	9.06288
11.07	9.05466
11.08	9.05893
11.09	9.06387
11.1	9.02406
11.11	9.06453
11.12	9.04084
11.13	9.04249
11.14	9.03788
11.15	9.07374
11.16	9.02801
11.17	9.03393
11.18	9.02275
11.19	9.03262
11.2	9.04183
11.21	9.02571
11.22	9.04183
11.23	9.02308
11.24	9.01091
11.25	9.04347
11.26	9.02373
11.27	9.05696
11.28	9.02604
11.29	9.02768
11.3	9.04643
11.31	9.04446
11.32	9.03459
11.33	9.0392
11.34	9.03196
11.35	9.05235
11.36	9.04084
11.37	9.03821
11.38	9.03985
11.39	9.05104
11.4	9.04479
11.41	9.02012
11.42	9.04446
11.43	9.02867
11.44	9.054
11.45	9.03262
11.46	9.04512
11.47	9.04939
11.48	9.04051
11.49	9.05367
11.5	9.03295
11.51	9.04018
11.52	9.07045
11.53	9.05433
11.54	9.03854
11.55	9.04183
11.56	9.0563
11.57	9.0336
11.58	9.06584
11.59	9.0517
11.6	9.04216
11.61	9.06518
11.62	9.05531
11.63	9.04808
11.64	9.05531
11.65	9.04216
11.66	9.06387
11.67	9.06485
11.68	9.06485
11.69	9.05828
11.7	9.06321
11.71	9.07703
11.72	9.05597
11.73	9.05663
11.74	9.04906
11.75	9.03755
11.76	9.06255
11.77	9.0813
11.78	9.07538
11.79	9.07012
11.8	9.07505
11.81	9.08755
11.82	9.06979
11.83	9.04906
11.84	9.06485
11.85	9.06091
11.86	9.06781
11.87	9.08064
11.88	9.09347
11.89	9.07439
11.9	9.07176
11.91	9.06255
11.92	9.07242
11.93	9.07703
11.94	9.0711
11.95	9.0517
11.96	9.06156
11.97	9.07999
11.98	9.09446
11.99	9.08295
12	9.08032
12.01	9.06617
12.02	9.09051
12.03	9.07999
12.04	9.06979
12.05	9.08196
12.06	9.08788
12.07	9.08295
12.08	9.07571
12.09	9.07439
12.1	9.07538
12.11	9.06749
12.12	9.07834
12.13	9.05433
12.14	9.06979
12.15	9.07012
12.16	9.05137
12.17	9.0665
12.18	9.0711
12.19	9.08163
12.2	9.08788
12.21	9.06584
12.22	9.06913
12.23	9.05992
12.24	9.06189
12.25	9.0563
12.26	9.06485
12.27	9.06058
12.28	9.07735
12.29	9.06124
12.3	9.07045
12.31	9.09051
12.32	9.08295
12.33	9.09643
12.34	9.08262
12.35	9.07703
12.36	9.08624
12.37	9.07604
12.38	9.04841
12.39	9.08525
12.4	9.09742
12.41	9.10696
12.42	9.054
12.43	9.07604
12.44	9.07045
12.45	9.06716
12.46	9.06156
12.47	9.08032
12.48	9.08591
12.49	9.09117
12.5	9.06847
12.51	9.06979
12.52	9.06025
12.53	9.07933
12.54	9.09282
12.55	9.06288
12.56	9.0665
12.57	9.06749
12.58	9.07439
12.59	9.07768
12.6	9.07834
12.61	9.06814
12.62	9.09676
12.63	9.06156
12.64	9.06781
12.65	9.06749
12.66	9.05334
12.67	9.0586
12.68	9.06781
12.69	9.0461
12.7	9.05137
12.71	9.07176
12.72	9.05038
12.73	9.04413
12.74	9.04808
12.75	9.03459
12.76	9.04939
12.77	9.05564
12.78	9.06781
12.79	9.08229
12.8	9.07999
12.81	9.06222
12.82	9.06518
12.83	9.07867
12.84	9.05499
12.85	9.08755
12.86	9.0563
12.87	9.05663
12.88	9.05071
12.89	9.06617
12.9	9.07143
12.91	9.07275
12.92	9.09018
12.93	9.08032
12.94	9.09117
12.95	9.08196
12.96	9.07801
12.97	9.07012
12.98	9.09018
12.99	9.07209
13	9.06453
13.01	9.08393
13.02	9.09479
13.03	9.07834
13.04	9.07538
13.05	9.07768
13.06	9.06091
13.07	9.07966
13.08	9.06551
13.09	9.05499
13.1	9.06551
13.11	9.05992
13.12	9.08196
13.13	9.08426
13.14	9.08558
13.15	9.06913
13.16	9.08426
13.17	9.09446
13.18	9.10466
13.19	9.0836
13.2	9.07176
13.21	9.0813
13.22	9.0892
13.23	9.07308
13.24	9.06387
13.25	9.07406
13.26	9.08295
13.27	9.10104
13.28	9.07637
13.29	9.05597
13.3	9.08229
13.31	9.09874
13.32	9.08262
13.33	9.08196
13.34	9.10367
13.35	9.07703
13.36	9.07999
13.37	9.06847
13.38	9.1017
13.39	9.09117
13.4	9.09084
13.41	9.0767
13.42	9.0813
13.43	9.08393
13.44	9.06814
13.45	9.08985
13.46	9.08657
13.47	9.06847
13.48	9.05959
13.49	9.05466
13.5	9.10235
13.51	9.08657
13.52	9.08459
13.53	9.09709
13.54	9.0938
13.55	9.10696
13.56	9.08525
13.57	9.07834
13.58	9.07012
13.59	9.09742
13.6	9.08064
13.61	9.06518
13.62	9.08163
13.63	9.09314
13.64	9.1063
13.65	9.07834
13.66	9.08624
13.67	9.08163
13.68	9.08722
13.69	9.07143
13.7	9.07834
13.71	9.08689
13.72	9.07999
13.73	9.07966
