"BIO-KINE ASCII FILE"
"_COMMENT"	"MOS-500 Spectrometer"
"_COMMENT"	"Kinetics measurement"
"_COMMENT"	"Y Unit : Volt,  X Unit : s"
"_COMMENT"	"Excitation wavelength : 380 nm"
"_COMMENT"	"Fentes bandwidth =  1 nm"
"_COMMENT"	"HV= 1000V"
"_COMMENT"	"Timebase  1 =  .01 s   5001 pts"
"_SFM"	"SFM-400 /S  Advanced mode"
"_SFM"	"Ratio : S1: 2.5, S2: 0, S3: 0, S4: 1"
"_SFM"	"Content : S1: , S2: , S3: , S4:"
"_SFM"	"Concentration : S1: , S2: , S3: , S4:"
"_SFM"	"Total volume : 209 µl  Flow : 3.5 mL/s"
"_SFM"	"Acquisition start :  10 ms before stop"
"_SFM"	"cuve=FC-15, s1=10 ml , s2=10 ml , s3=10 ml , s4=1.9 ml"
"_UNITX"	"s"
"_UNITY"	"Volt"
"_DELTAX"	0
"_DATA"
1e-300	8.24444
0.01	8.57504
0.02	8.49379
0.03	8.63886
0.04	8.69544
0.05	8.71419
0.06	8.76583
0.07	8.82472
0.08	8.82176
0.09	8.88097
0.1	8.81584
0.11	8.82867
0.12	8.8007
0.13	8.78491
0.14	8.81748
0.15	8.85531
0.16	8.81748
0.17	8.82702
0.18	8.78952
0.19	8.80761
0.2	8.86617
0.21	8.83492
0.22	8.83886
0.23	8.85399
0.24	8.78327
0.25	8.8109
0.26	8.87965
0.27	8.8257
0.28	8.82965
0.29	8.84939
0.3	8.78985
0.31	8.77932
0.32	8.80432
0.33	8.78426
0.34	8.77011
0.35	8.78853
0.36	8.78524
0.37	8.8086
0.38	8.77176
0.39	8.75761
0.4	8.77406
0.41	8.78623
0.42	8.86814
0.43	8.81814
0.44	8.75268
0.45	8.74051
0.46	8.73524
0.47	8.76978
0.48	8.77439
0.49	8.77373
0.5	8.75893
0.51	8.74807
0.52	8.77406
0.53	8.71222
0.54	8.73458
0.55	8.75498
0.56	8.73952
0.57	8.74379
0.58	8.66221
0.59	8.73031
0.6	8.65925
0.61	8.67504
0.62	8.67471
0.63	8.70366
0.64	8.68031
0.65	8.66748
0.66	8.67044
0.67	8.66682
0.68	8.64938
0.69	8.69215
0.7	8.68524
0.71	8.66846
0.72	8.62965
0.73	8.65432
0.74	8.64873
0.75	8.57932
0.76	8.62504
0.77	8.6405
0.78	8.66452
0.79	8.65202
0.8	8.64708
0.81	8.60432
0.82	8.58524
0.83	8.62537
0.84	8.65169
0.85	8.59478
0.86	8.61682
0.87	8.678
0.88	8.65564
0.89	8.61484
0.9	8.62438
0.91	8.61188
0.92	8.61649
0.93	8.58721
0.94	8.62438
0.95	8.55366
0.96	8.50629
0.97	8.61616
0.98	8.54313
0.99	8.60761
1	8.60498
1.01	8.60103
1.02	8.5678
1.03	8.55761
1.04	8.49708
1.05	8.53557
1.06	8.4757
1.07	8.49938
1.08	8.54313
1.09	8.53622
1.1	8.53096
1.11	8.48392
1.12	8.51912
1.13	8.46024
1.14	8.45366
1.15	8.53491
1.16	8.49708
1.17	8.53557
1.18	8.53688
1.19	8.51978
1.2	8.47899
1.21	8.53721
1.22	8.49576
1.23	8.47734
1.24	8.45596
1.25	8.51386
1.26	8.48622
1.27	8.49116
1.28	8.44971
1.29	8.44478
1.3	8.42043
1.31	8.41418
1.32	8.4201
1.33	8.4678
1.34	8.45103
1.35	8.43491
1.36	8.44214
1.37	8.47175
1.38	8.4053
1.39	8.42931
1.4	8.45135
1.41	8.3882
1.42	8.3951
1.43	8.42833
1.44	8.36944
1.45	8.42767
1.46	8.45629
1.47	8.503
1.48	8.42241
1.49	8.40991
1.5	8.41287
1.51	8.4382
1.52	8.36089
1.53	8.34083
1.54	8.36352
1.55	8.43227
1.56	8.37734
1.57	8.32701
1.58	8.39083
1.59	8.30892
1.6	8.30332
1.61	8.34017
1.62	8.31319
1.63	8.30859
1.64	8.31385
1.65	8.31484
1.66	8.34806
1.67	8.32865
1.68	8.33425
1.69	8.30563
1.7	8.3178
1.71	8.31615
1.72	8.33063
1.73	8.32833
1.74	8.3099
1.75	8.26549
1.76	8.29905
1.77	8.31944
1.78	8.27931
1.79	8.3099
1.8	8.28326
1.81	8.27734
1.82	8.29905
1.83	8.24938
1.84	8.23063
1.85	8.23984
1.86	8.25596
1.87	8.28721
1.88	8.2303
1.89	8.25826
1.9	8.21286
1.91	8.2053
1.92	8.20168
1.93	8.21451
1.94	8.25628
1.95	8.24674
1.96	8.23161
1.97	8.25365
1.98	8.21253
1.99	8.18622
2	8.19641
2.01	8.20234
2.02	8.21878
2.03	8.22174
2.04	8.22306
2.05	8.17964
2.06	8.18391
2.07	8.24148
2.08	8.20332
2.09	8.22339
2.1	8.19872
2.11	8.18293
2.12	8.1747
2.13	8.15727
2.14	8.20826
2.15	8.14641
2.16	8.21484
2.17	8.1872
2.18	8.1747
2.19	8.15036
2.2	8.12043
2.21	8.12964
2.22	8.20332
2.23	8.1724
2.24	8.14214
2.25	8.16714
2.26	8.09246
2.27	8.15398
2.28	8.11089
2.29	8.16122
2.3	8.13622
2.31	8.08358
2.32	8.07042
2.33	8.10398
2.34	8.14148
2.35	8.1349
2.36	8.14378
2.37	8.1474
2.38	8.09707
2.39	8.10332
2.4	8.04082
2.41	8.05529
2.42	8.08753
2.43	8.1326
2.44	8.16944
2.45	8.10825
2.46	8.077
2.47	8.13358
2.48	8.12865
2.49	8.05628
2.5	8.04246
2.51	8.04279
2.52	8.06154
2.53	7.98786
2.54	8.08819
2.55	8.06812
2.56	8.06746
2.57	8.07766
2.58	8.07635
2.59	8.05299
2.6	8.08753
2.61	8.05398
2.62	7.99082
2.63	8.03457
2.64	8.06187
2.65	8.11286
2.66	8.01384
2.67	8.00134
2.68	7.9793
2.69	7.98884
2.7	8.03588
2.71	7.9793
2.72	8.02536
2.73	7.98884
2.74	8.01417
2.75	7.97207
2.76	8.00134
2.77	7.99476
2.78	7.95068
2.79	7.97305
2.8	7.94345
2.81	7.95167
2.82	7.98457
2.83	7.98555
2.84	7.98457
2.85	7.88818
2.86	7.9747
2.87	7.96516
2.88	7.94805
2.89	7.95101
2.9	7.94345
2.91	7.96483
2.92	7.9372
2.93	7.90924
2.94	7.95036
2.95	7.95661
2.96	7.92568
2.97	7.95003
2.98	7.97305
2.99	7.94115
3	7.92338
3.01	7.88391
3.02	7.88785
3.03	7.90134
3.04	7.91779
3.05	7.89772
3.06	7.94542
3.07	7.98884
3.08	7.98029
3.09	7.91417
3.1	7.94443
3.11	7.93128
3.12	7.86779
3.13	7.86483
3.14	7.87305
3.15	7.91022
3.16	7.88917
3.17	7.87996
3.18	7.89378
3.19	7.85989
3.2	7.8247
3.21	7.82075
3.22	7.86779
3.23	7.88884
3.24	7.88029
3.25	7.83884
3.26	7.84739
3.27	7.82305
3.28	7.82206
3.29	7.8622
3.3	7.86187
3.31	7.83752
3.32	7.84312
3.33	7.82239
3.34	7.84016
3.35	7.75989
3.36	7.78292
3.37	7.8441
3.38	7.79509
3.39	7.82766
3.4	7.78719
3.41	7.8145
3.42	7.85002
3.43	7.79904
3.44	7.79312
3.45	7.81121
3.46	7.83555
3.47	7.78621
3.48	7.77864
3.49	7.7839
3.5	7.777
3.51	7.74607
3.52	7.7691
3.53	7.81844
3.54	7.74147
3.55	7.73686
3.56	7.75956
3.57	7.7395
3.58	7.75594
3.59	7.77535
3.6	7.71022
3.61	7.74114
3.62	7.77831
3.63	7.72667
3.64	7.71384
3.65	7.69542
3.66	7.74772
3.67	7.73851
3.68	7.72371
3.69	7.80331
3.7	7.75002
3.71	7.68259
3.72	7.7191
3.73	7.72568
3.74	7.74476
3.75	7.74969
3.76	7.77404
3.77	7.68423
3.78	7.71581
3.79	7.72996
3.8	7.72732
3.81	7.7214
3.82	7.72075
3.83	7.68456
3.84	7.69936
3.85	7.71318
3.86	7.71515
3.87	7.68456
3.88	7.69443
3.89	7.64476
3.9	7.66647
3.91	7.63916
3.92	7.66614
3.93	7.63818
3.94	7.6714
3.95	7.69015
3.96	7.62305
3.97	7.62008
3.98	7.6737
3.99	7.66285
4	7.63357
4.01	7.67634
4.02	7.62962
4.03	7.60956
4.04	7.65495
4.05	7.62962
4.06	7.63851
4.07	7.6589
4.08	7.62765
4.09	7.62173
4.1	7.61022
4.11	7.56581
4.12	7.61087
4.13	7.68686
4.14	7.60824
4.15	7.58258
4.16	7.58423
4.17	7.59015
4.18	7.59804
4.19	7.65956
4.2	7.60726
4.21	7.58489
4.22	7.55298
4.23	7.58522
4.24	7.57436
4.25	7.62239
4.26	7.63785
4.27	7.62008
4.28	7.57831
4.29	7.59311
4.3	7.59772
4.31	7.63489
4.32	7.60791
4.33	7.61943
4.34	7.57798
4.35	7.57864
4.36	7.55989
4.37	7.5589
4.38	7.58916
4.39	7.57239
4.4	7.51679
4.41	7.54969
4.42	7.54804
4.43	7.55199
4.44	7.52337
4.45	7.55989
4.46	7.50594
4.47	7.54936
4.48	7.57535
4.49	7.54706
4.5	7.58061
4.51	7.57074
4.52	7.51383
4.53	7.57633
4.54	7.49574
4.55	7.56153
4.56	7.47238
4.57	7.501
4.58	7.50396
4.59	7.49508
4.6	7.56515
4.61	7.5464
4.62	7.54443
4.63	7.52304
4.64	7.52074
4.65	7.50396
4.66	7.50561
4.67	7.48949
4.68	7.49475
4.69	7.53949
4.7	7.48784
4.71	7.52864
4.72	7.50067
4.73	7.55824
4.74	7.53817
4.75	7.49541
4.76	7.551
4.77	7.47436
4.78	7.42765
4.79	7.49574
4.8	7.48883
4.81	7.47699
4.82	7.46909
4.83	7.48456
4.84	7.45988
4.85	7.45429
4.86	7.45561
4.87	7.45034
4.88	7.44969
4.89	7.46613
4.9	7.43258
4.91	7.40429
4.92	7.45659
4.93	7.45758
4.94	7.41021
4.95	7.42337
4.96	7.42403
4.97	7.45166
4.98	7.45429
4.99	7.45363
5	7.451
5.01	7.41218
5.02	7.43028
5.03	7.42205
5.04	7.42534
5.05	7.45133
5.06	7.38686
5.07	7.40857
5.08	7.42995
5.09	7.44212
5.1	7.39936
5.11	7.38061
5.12	7.39672
5.13	7.41515
5.14	7.3964
5.15	7.37962
5.16	7.37929
5.17	7.36054
5.18	7.38718
5.19	7.37205
5.2	7.38159
5.21	7.33916
5.22	7.36383
5.23	7.3658
5.24	7.351
5.25	7.36185
5.26	7.38521
5.27	7.36514
5.28	7.35001
5.29	7.38061
5.3	7.34606
5.31	7.32863
5.32	7.33916
5.33	7.35922
5.34	7.32468
5.35	7.3658
5.36	7.37863
5.37	7.31087
5.38	7.32929
5.39	7.37205
5.4	7.3885
5.41	7.36942
5.42	7.39047
5.43	7.35725
5.44	7.31218
5.45	7.35922
5.46	7.36843
5.47	7.37139
5.48	7.37929
5.49	7.35166
5.5	7.32962
5.51	7.38982
5.52	7.37633
5.53	7.32238
5.54	7.34179
5.55	7.351
5.56	7.34639
5.57	7.31251
5.58	7.33258
5.59	7.3362
5.6	7.35429
5.61	7.37436
5.62	7.33587
5.63	7.27567
5.64	7.34376
5.65	7.31876
5.66	7.31284
5.67	7.31613
5.68	7.3487
5.69	7.39311
5.7	7.3033
5.71	7.33521
5.72	7.31317
5.73	7.36383
5.74	7.34014
5.75	7.30297
5.76	7.30133
5.77	7.30823
5.78	7.32731
5.79	7.30823
5.8	7.28685
5.81	7.29179
5.82	7.27073
5.83	7.31646
5.84	7.29573
5.85	7.27567
5.86	7.3112
5.87	7.27073
5.88	7.23488
5.89	7.23521
5.9	7.18948
5.91	7.28422
5.92	7.24804
5.93	7.23817
5.94	7.33554
5.95	7.33356
5.96	7.24475
5.97	7.24376
5.98	7.23225
5.99	7.19672
6	7.22896
6.01	7.20823
6.02	7.28422
6.03	7.2329
6.04	7.24705
6.05	7.23521
6.06	7.22863
6.07	7.2079
6.08	7.19573
6.09	7.2579
6.1	7.26218
6.11	7.24869
6.12	7.25494
6.13	7.18619
6.14	7.1806
6.15	7.2283
6.16	7.18619
6.17	7.22896
6.18	7.17698
6.19	7.16974
6.2	7.19869
6.21	7.17303
6.22	7.18652
6.23	7.24869
6.24	7.22402
6.25	7.24113
6.26	7.27238
6.27	7.1704
6.28	7.17303
6.29	7.18981
6.3	7.24146
6.31	7.18718
6.32	7.17961
6.33	7.16711
6.34	7.16317
6.35	7.20067
6.36	7.10691
6.37	7.12994
6.38	7.22073
6.39	7.23981
6.4	7.19935
6.41	7.1908
6.42	7.20461
6.43	7.20626
6.44	7.15494
6.45	7.15363
6.46	7.12336
6.47	7.17896
6.48	7.17369
6.49	7.13981
6.5	7.18915
6.51	7.17336
6.52	7.12205
6.53	7.09902
6.54	7.20132
6.55	7.20461
6.56	7.13915
6.57	7.1408
6.58	7.11284
6.59	7.16317
6.6	7.15823
6.61	7.18488
6.62	7.15659
6.63	7.10395
6.64	7.12731
6.65	7.15527
6.66	7.13718
6.67	7.13027
6.68	7.12764
6.69	7.0704
6.7	7.06382
6.71	7.1181
6.72	7.12731
6.73	7.14409
6.74	7.15001
6.75	7.0931
6.76	7.14178
6.77	7.11843
6.78	7.11678
6.79	7.15461
6.8	7.13027
6.81	7.13389
6.82	7.14639
6.83	7.12566
6.84	7.10428
6.85	7.09474
6.86	7.10395
6.87	7.09277
6.88	7.05889
6.89	7.0806
6.9	7.0908
6.91	7.11744
6.92	7.11185
6.93	7.09705
6.94	7.08586
6.95	7.09178
6.96	7.13586
6.97	7.08981
6.98	7.05922
6.99	7.08093
7	7.08948
7.01	7.10001
7.02	7.07829
7.03	7.0931
7.04	7.11612
7.05	7.08586
7.06	7.10395
7.07	7.10066
7.08	7.06711
7.09	7.09639
7.1	7.1204
7.11	7.04441
7.12	7.01514
7.13	7.08257
7.14	7.08718
7.15	7.07862
7.16	7.10033
7.17	7.07533
7.18	7.06316
7.19	7.01678
7.2	7.09737
7.21	7.05198
7.22	7.0954
7.23	7.07928
7.24	7.0102
7.25	7.01579
7.26	7.02467
7.27	7.06974
7.28	7.0352
7.29	7.06876
7.3	7.10297
7.31	7.04507
7.32	7.05922
7.33	7.06152
7.34	7.00658
7.35	7.02171
7.36	7.04639
7.37	7.02435
7.38	6.97566
7.39	6.99046
7.4	6.99408
7.41	6.9829
7.42	7.00658
7.43	7.0352
7.44	7.03487
7.45	7.0375
7.46	7.01711
7.47	7.05297
7.48	6.98027
7.49	7.04211
7.5	7.05231
7.51	7.01283
7.52	7.03224
7.53	7.04244
7.54	7.01842
7.55	6.98224
7.56	7.04671
7.57	6.97007
7.58	7.01777
7.59	6.99342
7.6	7.02698
7.61	6.99375
7.62	7.00132
7.63	6.9875
7.64	7.02303
7.65	6.99342
7.66	6.96941
7.67	7.00823
7.68	7.01349
7.69	6.94375
7.7	7.00231
7.71	6.95724
7.72	7.03421
7.73	6.98125
7.74	6.95066
7.75	6.96579
7.76	7.02171
7.77	6.95724
7.78	6.96086
7.79	6.97434
7.8	7.01645
7.81	6.95329
7.82	7.03882
7.83	7.00987
7.84	6.96217
7.85	6.97731
7.86	6.93816
7.87	6.98816
7.88	6.99145
7.89	6.96612
7.9	6.94276
7.91	6.93948
7.92	6.93849
7.93	6.92599
7.94	6.96184
7.95	7.01152
7.96	6.975
7.97	6.98684
7.98	6.90296
7.99	6.90526
8	6.93816
8.01	6.93717
8.02	6.92697
8.03	6.91645
8.04	6.97007
8.05	6.9352
8.06	6.9398
8.07	6.93553
8.08	6.92566
8.09	6.92862
8.1	6.92994
8.11	6.91875
8.12	6.92796
8.13	6.91086
8.14	6.94638
8.15	6.92303
8.16	6.89868
8.17	6.94967
8.18	6.93224
8.19	6.91941
8.2	6.87961
8.21	6.87961
8.22	6.85921
8.23	6.94474
8.24	6.91053
8.25	6.89342
8.26	6.91283
8.27	6.94803
8.28	6.88125
8.29	6.88388
8.3	6.90954
8.31	6.86645
8.32	6.86184
8.33	6.87829
8.34	6.90428
8.35	6.93684
8.36	6.95198
8.37	6.87237
8.38	6.85888
8.39	6.92665
8.4	6.93783
8.41	6.95066
8.42	6.89868
8.43	6.88882
8.44	6.89638
8.45	6.87599
8.46	6.88026
8.47	6.88092
8.48	6.90461
8.49	6.88158
8.5	6.90066
8.51	6.84474
8.52	6.84474
8.53	6.88717
8.54	6.89605
8.55	6.875
8.56	6.88915
8.57	6.91415
8.58	6.91744
8.59	6.88684
8.6	6.84737
8.61	6.88816
8.62	6.85263
8.63	6.87434
8.64	6.87763
8.65	6.89868
8.66	6.85395
8.67	6.86283
8.68	6.87401
8.69	6.88487
8.7	6.88947
8.71	6.84276
8.72	6.89145
8.73	6.8875
8.74	6.9125
8.75	6.87303
8.76	6.85757
8.77	6.87829
8.78	6.92632
8.79	6.90855
8.8	6.87039
8.81	6.87039
8.82	6.88257
8.83	6.85954
8.84	6.86085
8.85	6.88553
8.86	6.84934
8.87	6.85493
8.88	6.83717
8.89	6.84967
8.9	6.85789
8.91	6.85855
8.92	6.82105
8.93	6.86151
8.94	6.86579
8.95	6.82533
8.96	6.7648
8.97	6.79572
8.98	6.83618
8.99	6.8102
9	6.85263
9.01	6.85855
9.02	6.8648
9.03	6.81513
9.04	6.82467
9.05	6.86776
9.06	6.80395
9.07	6.81612
9.08	6.79737
9.09	6.79342
9.1	6.7898
9.11	6.82368
9.12	6.82862
9.13	6.82237
9.14	6.85625
9.15	6.86382
9.16	6.8273
9.17	6.83092
9.18	6.82697
9.19	6.84375
9.2	6.81349
9.21	6.81513
9.22	6.81743
9.23	6.85099
9.24	6.81579
9.25	6.76743
9.26	6.77862
9.27	6.81184
9.28	6.8125
9.29	6.80362
9.3	6.80033
9.31	6.8148
9.32	6.7875
9.33	6.84934
9.34	6.77631
9.35	6.80559
9.36	6.79835
9.37	6.79638
9.38	6.7796
9.39	6.75065
9.4	6.80395
9.41	6.77533
9.42	6.82895
9.43	6.82631
9.44	6.80822
9.45	6.72664
9.46	6.79901
9.47	6.8273
9.48	6.82533
9.49	6.82171
9.5	6.80723
9.51	6.79177
9.52	6.80625
9.53	6.79309
9.54	6.79671
9.55	6.76447
9.56	6.81513
9.57	6.78816
9.58	6.76842
9.59	6.76348
9.6	6.77829
9.61	6.75954
9.62	6.76875
9.63	6.78914
9.64	6.77269
9.65	6.80164
9.66	6.74802
9.67	6.75987
9.68	6.71546
9.69	6.75625
9.7	6.78289
9.71	6.79243
9.72	6.81513
9.73	6.79473
9.74	6.78092
9.75	6.75098
9.76	6.77335
9.77	6.77105
9.78	6.76809
9.79	6.71973
9.8	6.71513
9.81	6.79901
9.82	6.77631
9.83	6.73355
9.84	6.71644
9.85	6.72467
9.86	6.72006
9.87	6.72664
9.88	6.71579
9.89	6.79243
9.9	6.76842
9.91	6.7773
9.92	6.77204
9.93	6.77006
9.94	6.77006
9.95	6.73914
9.96	6.76809
9.97	6.75
9.98	6.75658
9.99	6.72927
10	6.78454
10.01	6.74802
10.02	6.79013
10.03	6.72434
10.04	6.75756
10.05	6.77269
10.06	6.77697
10.07	6.73618
10.08	6.70789
10.09	6.7148
10.1	6.68651
10.11	6.67499
10.12	6.75197
10.13	6.73947
10.14	6.72401
10.15	6.72861
10.16	6.69046
10.17	6.70986
10.18	6.74243
10.19	6.73355
10.2	6.71282
10.21	6.72269
10.22	6.73322
10.23	6.69868
10.24	6.77368
10.25	6.75197
10.26	6.7125
10.27	6.75658
10.28	6.71447
10.29	6.69078
10.3	6.73322
10.31	6.75362
10.32	6.71973
10.33	6.72006
10.34	6.7069
10.35	6.69539
10.36	6.71546
10.37	6.67203
10.38	6.71546
10.39	6.65197
10.4	6.64605
10.41	6.70822
10.42	6.71579
10.43	6.72105
10.44	6.69572
10.45	6.73519
10.46	6.67499
10.47	6.69703
10.48	6.68355
10.49	6.72434
10.5	6.72072
10.51	6.70789
10.52	6.68717
10.53	6.68157
10.54	6.68256
10.55	6.66019
10.56	6.69046
10.57	6.70394
10.58	6.71118
10.59	6.69835
10.6	6.7125
10.61	6.69375
10.62	6.66907
10.63	6.70592
10.64	6.71019
10.65	6.7319
10.66	6.71644
10.67	6.66611
10.68	6.71019
10.69	6.69177
10.7	6.65361
10.71	6.70296
10.72	6.71348
10.73	6.68388
10.74	6.64769
10.75	6.70559
10.76	6.66414
10.77	6.65723
10.78	6.66743
10.79	6.69506
10.8	6.68124
10.81	6.69671
10.82	6.69342
10.83	6.67467
10.84	6.71282
10.85	6.66809
10.86	6.65789
10.87	6.71348
10.88	6.67861
10.89	6.6421
10.9	6.72927
10.91	6.66217
10.92	6.66611
10.93	6.68486
10.94	6.6694
10.95	6.65953
10.96	6.58749
10.97	6.58552
10.98	6.6671
10.99	6.66217
11	6.64506
11.01	6.66513
11.02	6.65295
11.03	6.74079
11.04	6.68256
11.05	6.64341
11.06	6.65953
11.07	6.6217
11.08	6.65888
11.09	6.58749
11.1	6.6319
11.11	6.64276
11.12	6.65493
11.13	6.64999
11.14	6.65855
11.15	6.64802
11.16	6.67467
11.17	6.65526
11.18	6.64276
11.19	6.61216
11.2	6.61216
11.21	6.65756
11.22	6.64901
11.23	6.61414
11.24	6.65855
11.25	6.6444
11.26	6.65197
11.27	6.63387
11.28	6.64868
11.29	6.60986
11.3	6.65756
11.31	6.64769
11.32	6.6194
11.33	6.66381
11.34	6.67039
11.35	6.64539
11.36	6.59769
11.37	6.67532
11.38	6.68486
11.39	6.62762
11.4	6.62466
11.41	6.5842
11.42	6.60197
11.43	6.60328
11.44	6.59703
11.45	6.6342
11.46	6.66743
11.47	6.66282
11.48	6.64144
11.49	6.64045
11.5	6.64802
11.51	6.62335
11.52	6.6319
11.53	6.66447
11.54	6.64966
11.55	6.65493
11.56	6.63519
11.57	6.65624
11.58	6.62565
11.59	6.64276
11.6	6.64506
11.61	6.62828
11.62	6.65657
11.63	6.64309
11.64	6.6148
11.65	6.63651
11.66	6.65822
11.67	6.64736
11.68	6.63618
11.69	6.67203
11.7	6.66776
11.71	6.63618
11.72	6.59572
11.73	6.63618
11.74	6.64539
11.75	6.58651
11.76	6.60558
11.77	6.68256
11.78	6.61841
11.79	6.59802
11.8	6.61545
11.81	6.61183
11.82	6.61085
11.83	6.60394
11.84	6.5944
11.85	6.59835
11.86	6.62137
11.87	6.5921
11.88	6.61776
11.89	6.58848
11.9	6.58256
11.91	6.55098
11.92	6.60065
11.93	6.56479
11.94	6.58716
11.95	6.62894
11.96	6.58354
11.97	6.61809
11.98	6.61216
11.99	6.58914
12	6.62499
12.01	6.63914
12.02	6.58256
12.03	6.59703
12.04	6.57565
12.05	6.61019
12.06	6.60591
12.07	6.58815
12.08	6.58519
12.09	6.58881
12.1	6.58914
12.11	6.58749
12.12	6.56479
12.13	6.61118
12.14	6.57302
12.15	6.59605
12.16	6.56447
12.17	6.56611
12.18	6.58552
12.19	6.58618
12.2	6.59868
12.21	6.57466
12.22	6.59045
12.23	6.59473
12.24	6.60262
12.25	6.60526
12.26	6.55131
12.27	6.59802
12.28	6.62302
12.29	6.61973
12.3	6.55328
12.31	6.56249
12.32	6.59078
12.33	6.56644
12.34	6.55164
12.35	6.55822
12.36	6.57697
12.37	6.56447
12.38	6.5671
12.39	6.60394
12.4	6.59473
12.41	6.57466
12.42	6.58256
12.43	6.58387
12.44	6.59473
12.45	6.60065
12.46	6.54177
12.47	6.56874
12.48	6.58651
12.49	6.59045
12.5	6.59769
12.51	6.57335
12.52	6.60164
12.53	6.59177
12.54	6.62532
12.55	6.57302
12.56	6.53552
12.57	6.55427
12.58	6.60394
12.59	6.5467
12.6	6.58947
12.61	6.58914
12.62	6.58322
12.63	6.60427
12.64	6.56381
12.65	6.56512
12.66	6.56118
12.67	6.59473
12.68	6.55196
12.69	6.53782
12.7	6.56282
12.71	6.55394
12.72	6.57072
12.73	6.53979
12.74	6.53091
12.75	6.57729
12.76	6.57072
12.77	6.52466
12.78	6.58124
12.79	6.55328
12.8	6.60986
12.81	6.56414
12.82	6.57039
12.83	6.56019
12.84	6.57894
12.85	6.55789
12.86	6.56677
12.87	6.58815
12.88	6.56249
12.89	6.57137
12.9	6.5819
12.91	6.54275
12.92	6.53881
12.93	6.54045
12.94	6.49078
12.95	6.55624
12.96	6.55525
12.97	6.54473
12.98	6.57664
12.99	6.51644
13	6.50065
13.01	6.56743
13.02	6.51742
13.03	6.58091
13.04	6.54933
13.05	6.53486
13.06	6.56447
13.07	6.55854
13.08	6.53914
13.09	6.57565
13.1	6.5671
13.11	6.54999
13.12	6.56348
13.13	6.54868
13.14	6.49703
13.15	6.53223
13.16	6.55032
13.17	6.49078
13.18	6.52729
13.19	6.54012
13.2	6.52269
13.21	6.55493
13.22	6.52499
13.23	6.56447
13.24	6.51775
13.25	6.53025
13.26	6.54045
13.27	6.57269
13.28	6.61743
13.29	6.52039
13.3	6.52729
13.31	6.48288
13.32	6.45854
13.33	6.53124
13.34	6.50394
13.35	6.52696
13.36	6.52071
13.37	6.55394
13.38	6.52466
13.39	6.55887
13.4	6.53387
13.41	6.49867
13.42	6.48617
13.43	6.50361
13.44	6.53585
13.45	6.57565
13.46	6.56907
13.47	6.52828
13.48	6.52631
13.49	6.49538
13.5	6.53815
13.51	6.52762
13.52	6.54933
13.53	6.55525
13.54	6.5217
13.55	6.60328
13.56	6.57565
13.57	6.47894
13.58	6.53881
13.59	6.50098
13.6	6.49407
13.61	6.52894
13.62	6.51019
13.63	6.49867
13.64	6.54275
13.65	6.53223
13.66	6.48486
13.67	6.49834
13.68	6.54802
13.69	6.5592
13.7	6.57631
13.71	6.5194
13.72	6.53091
13.73	6.54539
