"BIO-KINE ASCII FILE"
"_COMMENT"	"MOS-500 Spectrometer"
"_COMMENT"	"Kinetics measurement"
"_COMMENT"	"Y Unit : Volt,  X Unit : s"
"_COMMENT"	"Excitation wavelength : 380 nm"
"_COMMENT"	"Fentes bandwidth =  1 nm"
"_COMMENT"	"HV= 750V"
"_COMMENT"	"Timebase  1 =  .01 s   3001 pts"
"_SFM"	"SFM-400 /S  Advanced mode"
"_SFM"	"Ratio : S1: 2.5, S2: 0, S3: 0, S4: 1"
"_SFM"	"Content : S1: , S2: , S3: , S4:"
"_SFM"	"Concentration : S1: , S2: , S3: , S4:"
"_SFM"	"Total volume : 209 µl  Flow : 3.5 mL/s"
"_SFM"	"Acquisition start :  10 ms before stop"
"_SFM"	"cuve=FC-15, s1=10 ml , s2=10 ml , s3=10 ml , s4=1.9 ml"
"_UNITX"	"s"
"_UNITY"	"Volt"
"_DELTAX"	0
"_DATA"
1e-300	7.13751
0.01	7.58324
0.02	7.72634
0.03	7.75298
0.04	7.77897
0.05	7.75035
0.06	7.77502
0.07	7.76252
0.08	7.78851
0.09	7.78851
0.1	7.76976
0.11	7.75726
0.12	7.77963
0.13	7.7839
0.14	7.7964
0.15	7.76351
0.16	7.75463
0.17	7.78423
0.18	7.78259
0.19	7.76417
0.2	7.75923
0.21	7.74279
0.22	7.7395
0.23	7.73193
0.24	7.74081
0.25	7.72502
0.26	7.73193
0.27	7.73489
0.28	7.73884
0.29	7.7339
0.3	7.71219
0.31	7.70463
0.32	7.71088
0.33	7.70857
0.34	7.71055
0.35	7.69936
0.36	7.68752
0.37	7.70759
0.38	7.68785
0.39	7.68653
0.4	7.67634
0.41	7.65232
0.42	7.65002
0.43	7.65002
0.44	7.63982
0.45	7.63127
0.46	7.62502
0.47	7.61778
0.48	7.6112
0.49	7.62995
0.5	7.59344
0.51	7.59081
0.52	7.61976
0.53	7.59508
0.54	7.5964
0.55	7.57337
0.56	7.56647
0.57	7.57304
0.58	7.57535
0.59	7.576
0.6	7.57403
0.61	7.53916
0.62	7.55561
0.63	7.54903
0.64	7.53883
0.65	7.51646
0.66	7.53489
0.67	7.54081
0.68	7.51252
0.69	7.51021
0.7	7.5066
0.71	7.51383
0.72	7.49969
0.73	7.4839
0.74	7.48423
0.75	7.47074
0.76	7.46482
0.77	7.46811
0.78	7.46548
0.79	7.43554
0.8	7.45067
0.81	7.43554
0.82	7.44015
0.83	7.42436
0.84	7.41021
0.85	7.41251
0.86	7.42567
0.87	7.41844
0.88	7.41054
0.89	7.40166
0.9	7.39968
0.91	7.39541
0.92	7.38192
0.93	7.3635
0.94	7.35001
0.95	7.35725
0.96	7.36745
0.97	7.36482
0.98	7.35231
0.99	7.34442
1	7.33718
1.01	7.3408
1.02	7.34146
1.03	7.33159
1.04	7.30856
1.05	7.32468
1.06	7.2987
1.07	7.30495
1.08	7.29113
1.09	7.28291
1.1	7.2704
1.11	7.27337
1.12	7.28356
1.13	7.25823
1.14	7.23948
1.15	7.25297
1.16	7.23981
1.17	7.25034
1.18	7.24277
1.19	7.23192
1.2	7.22468
1.21	7.2181
1.22	7.21448
1.23	7.21119
1.24	7.21251
1.25	7.20757
1.26	7.18323
1.27	7.19113
1.28	7.18882
1.29	7.18389
1.3	7.16909
1.31	7.15494
1.32	7.1602
1.33	7.15461
1.34	7.1408
1.35	7.14441
1.36	7.14573
1.37	7.1204
1.38	7.12534
1.39	7.10823
1.4	7.10428
1.41	7.09376
1.42	7.09441
1.43	7.09705
1.44	7.10889
1.45	7.07533
1.46	7.08882
1.47	7.07402
1.48	7.0579
1.49	7.06283
1.5	7.04441
1.51	7.04803
1.52	7.04145
1.53	7.04211
1.54	7.01645
1.55	7.02731
1.56	7.03948
1.57	7.03125
1.58	7.01152
1.59	7.00823
1.6	6.99902
1.61	7.00724
1.62	7.00066
1.63	6.98027
1.64	7.00066
1.65	6.98323
1.66	6.97336
1.67	6.96119
1.68	6.9625
1.69	6.96579
1.7	6.96184
1.71	6.95362
1.72	6.94211
1.73	6.91579
1.74	6.91415
1.75	6.90461
1.76	6.91053
1.77	6.91875
1.78	6.8898
1.79	6.89309
1.8	6.88158
1.81	6.89375
1.82	6.90296
1.83	6.875
1.84	6.85395
1.85	6.8625
1.86	6.85197
1.87	6.85099
1.88	6.86382
1.89	6.84835
1.9	6.82138
1.91	6.82401
1.92	6.83026
1.93	6.82237
1.94	6.81645
1.95	6.81316
1.96	6.79901
1.97	6.81316
1.98	6.78421
1.99	6.77829
2	6.78585
2.01	6.7796
2.02	6.775
2.03	6.74539
2.04	6.74375
2.05	6.75888
2.06	6.76973
2.07	6.75263
2.08	6.75098
2.09	6.73815
2.1	6.73585
2.11	6.74111
2.12	6.72236
2.13	6.73421
2.14	6.72434
2.15	6.70559
2.16	6.69703
2.17	6.69473
2.18	6.67598
2.19	6.6694
2.2	6.68124
2.21	6.69013
2.22	6.67927
2.23	6.68552
2.24	6.68585
2.25	6.68157
2.26	6.65723
2.27	6.65361
2.28	6.65559
2.29	6.64999
2.3	6.65263
2.31	6.62697
2.32	6.63387
2.33	6.61118
2.34	6.61973
2.35	6.63618
2.36	6.6171
2.37	6.60953
2.38	6.61151
2.39	6.58947
2.4	6.574
2.41	6.58815
2.42	6.57993
2.43	6.56052
2.44	6.56315
2.45	6.55295
2.46	6.54243
2.47	6.54078
2.48	6.53815
2.49	6.53289
2.5	6.524
2.51	6.51644
2.52	6.51019
2.53	6.5171
2.54	6.51512
2.55	6.51085
2.56	6.50953
2.57	6.48946
2.58	6.47992
2.59	6.48124
2.6	6.47696
2.61	6.4717
2.62	6.46413
2.63	6.43288
2.64	6.44341
2.65	6.4444
2.66	6.4319
2.67	6.43617
2.68	6.42828
2.69	6.42268
2.7	6.42071
2.71	6.40986
2.72	6.39538
2.73	6.39933
2.74	6.39637
2.75	6.39341
2.76	6.38847
2.77	6.35656
2.78	6.37005
2.79	6.38157
2.8	6.37334
2.81	6.35262
2.82	6.36018
2.83	6.34702
2.84	6.35229
2.85	6.35459
2.86	6.35558
2.87	6.34077
2.88	6.34768
2.89	6.33156
2.9	6.32531
2.91	6.324
2.92	6.32926
2.93	6.3161
2.94	6.30722
2.95	6.29669
2.96	6.29702
2.97	6.29768
2.98	6.2809
2.99	6.28946
3	6.28617
3.01	6.27762
3.02	6.28189
3.03	6.27465
3.04	6.27433
3.05	6.26051
3.06	6.25097
3.07	6.25755
3.08	6.24768
3.09	6.24505
3.1	6.22432
3.11	6.24768
3.12	6.22992
3.13	6.22498
3.14	6.22005
3.15	6.22301
3.16	6.21215
3.17	6.19768
3.18	6.17827
3.19	6.17959
3.2	6.18781
3.21	6.18485
3.22	6.17202
3.23	6.1661
3.24	6.14932
3.25	6.16347
3.26	6.16248
3.27	6.14241
3.28	6.12926
3.29	6.13287
3.3	6.12761
3.31	6.1184
3.32	6.13452
3.33	6.12695
3.34	6.09899
3.35	6.10064
3.36	6.09044
3.37	6.0911
3.38	6.09932
3.39	6.08353
3.4	6.07629
3.41	6.08057
3.42	6.0605
3.43	6.07596
3.44	6.06511
3.45	6.07366
3.46	6.05754
3.47	6.06182
3.48	6.03978
3.49	6.05228
3.5	6.04702
3.51	6.04636
3.52	6.02761
3.53	6.03682
3.54	6.02202
3.55	6.01116
3.56	6.02267
3.57	6.02531
3.58	6.01379
3.59	6.00754
3.6	6.0003
3.61	5.98912
3.62	5.99833
3.63	5.99636
3.64	5.998
3.65	5.98649
3.66	5.9753
3.67	5.97728
3.68	5.9582
3.69	5.94734
3.7	5.96215
3.71	5.94471
3.72	5.92695
3.73	5.93024
3.74	5.93747
3.75	5.93846
3.76	5.92168
3.77	5.91116
3.78	5.91905
3.79	5.9105
3.8	5.90524
3.81	5.91017
3.82	5.89734
3.83	5.88418
3.84	5.86971
3.85	5.873
3.86	5.88418
3.87	5.88484
3.88	5.87695
3.89	5.85523
3.9	5.848
3.91	5.85721
3.92	5.8628
3.93	5.84537
3.94	5.84405
3.95	5.84142
3.96	5.84537
3.97	5.85425
3.98	5.83352
3.99	5.82892
4	5.82629
4.01	5.81938
4.02	5.81214
4.03	5.82398
4.04	5.81247
4.05	5.78319
4.06	5.79964
4.07	5.79438
4.08	5.79043
4.09	5.76247
4.1	5.76905
4.11	5.75457
4.12	5.76411
4.13	5.7674
4.14	5.75951
4.15	5.7503
4.16	5.76313
4.17	5.75819
4.18	5.74076
4.19	5.75326
4.2	5.74898
4.21	5.73714
4.22	5.72727
4.23	5.72464
4.24	5.72135
4.25	5.72267
4.26	5.71016
4.27	5.70753
4.28	5.70293
4.29	5.69668
4.3	5.69865
4.31	5.7003
4.32	5.69799
4.33	5.68286
4.34	5.67299
4.35	5.67233
4.36	5.68845
4.37	5.6776
4.38	5.65523
4.39	5.65918
4.4	5.65885
4.41	5.65622
4.42	5.6447
4.43	5.64997
4.44	5.64832
4.45	5.64108
4.46	5.62168
4.47	5.62233
4.48	5.62135
4.49	5.63253
4.5	5.62069
4.51	5.61839
4.52	5.61016
4.53	5.62233
4.54	5.61246
4.55	5.62727
4.56	5.61082
4.57	5.59503
4.58	5.58779
4.59	5.60621
4.6	5.61608
4.61	5.60523
4.62	5.58845
4.63	5.58319
4.64	5.572
4.65	5.56378
4.66	5.58023
4.67	5.57036
4.68	5.55654
4.69	5.56213
4.7	5.57727
4.71	5.55555
4.72	5.56806
4.73	5.547
4.74	5.54338
4.75	5.55095
4.76	5.55786
4.77	5.53417
4.78	5.53648
4.79	5.54371
4.8	5.54174
4.81	5.52463
4.82	5.52266
4.83	5.51279
4.84	5.50161
4.85	5.4993
4.86	5.51115
4.87	5.49865
4.88	5.49963
4.89	5.50819
4.9	5.48384
4.91	5.47924
4.92	5.47726
4.93	5.48154
4.94	5.46378
4.95	5.47332
4.96	5.47003
4.97	5.46871
4.98	5.47332
4.99	5.46805
5	5.45226
5.01	5.46114
5.02	5.42397
5.03	5.42693
5.04	5.42463
5.05	5.44503
5.06	5.42759
5.07	5.4345
5.08	5.42035
5.09	5.40687
5.1	5.40851
5.11	5.40818
5.12	5.41608
5.13	5.40785
5.14	5.39206
5.15	5.39667
5.16	5.3891
5.17	5.3891
5.18	5.39042
5.19	5.37627
5.2	5.36608
5.21	5.38252
5.22	5.37331
5.23	5.3641
5.24	5.3743
5.25	5.37529
5.26	5.35555
5.27	5.35127
5.28	5.34469
5.29	5.34601
5.3	5.34634
5.31	5.34371
5.32	5.34371
5.33	5.31936
5.34	5.33746
5.35	5.33154
5.36	5.32989
5.37	5.32594
5.38	5.32693
5.39	5.30785
5.4	5.3118
5.41	5.29667
5.42	5.29173
5.43	5.2993
5.44	5.30686
5.45	5.30489
5.46	5.2914
5.47	5.29074
5.48	5.28285
5.49	5.28745
5.5	5.2868
5.51	5.28844
5.52	5.28384
5.53	5.25916
5.54	5.26903
5.55	5.26574
5.56	5.27759
5.57	5.25522
5.58	5.26015
5.59	5.25456
5.6	5.26541
5.61	5.24403
5.62	5.26541
5.63	5.26574
5.64	5.24469
5.65	5.23449
5.66	5.23647
5.67	5.23844
5.68	5.23712
5.69	5.2312
5.7	5.23219
5.71	5.22265
5.72	5.22462
5.73	5.21212
5.74	5.2039
5.75	5.22824
5.76	5.21476
5.77	5.20752
5.78	5.19995
5.79	5.20982
5.8	5.19436
5.81	5.20291
5.82	5.20061
5.83	5.19568
5.84	5.17594
5.85	5.18943
5.86	5.17627
5.87	5.18679
5.88	5.18515
5.89	5.1914
5.9	5.17495
5.91	5.16278
5.92	5.16475
5.93	5.17693
5.94	5.17495
5.95	5.15028
5.96	5.1539
5.97	5.14469
5.98	5.14929
5.99	5.15423
6	5.15225
6.01	5.14732
6.02	5.16048
6.03	5.13646
6.04	5.12988
6.05	5.14436
6.06	5.12758
6.07	5.13054
6.08	5.1414
6.09	5.13383
6.1	5.1187
6.11	5.11015
6.12	5.1164
6.13	5.11179
6.14	5.12067
6.15	5.10916
6.16	5.11508
6.17	5.10028
6.18	5.1108
6.19	5.11475
6.2	5.0983
6.21	5.10324
6.22	5.09337
6.23	5.09205
6.24	5.09173
6.25	5.08416
6.26	5.08646
6.27	5.09501
6.28	5.08482
6.29	5.06837
6.3	5.07199
6.31	5.08317
6.32	5.06771
6.33	5.07265
6.34	5.05653
6.35	5.05192
6.36	5.05488
6.37	5.06047
6.38	5.03679
6.39	5.04468
6.4	5.04238
6.41	5.04271
6.42	5.04732
6.43	5.0562
6.44	5.04139
6.45	5.03251
6.46	5.02626
6.47	5.02725
6.48	5.02758
6.49	5.0312
6.5	5.02001
6.51	5.02363
6.52	5.01738
6.53	5.01376
6.54	5.00817
6.55	4.99633
6.56	5.00653
6.57	5.00159
6.58	5.00093
6.59	4.99995
6.6	4.99633
6.61	4.99172
6.62	5.00587
6.63	4.9835
6.64	4.98152
6.65	4.97791
6.66	4.98251
6.67	4.98613
6.68	4.98251
6.69	4.96968
6.7	4.97955
6.71	4.95455
6.72	4.95093
6.73	4.95685
6.74	4.95916
6.75	4.9585
6.76	4.95784
6.77	4.96179
6.78	4.96902
6.79	4.95587
6.8	4.94106
6.81	4.95817
6.82	4.94698
6.83	4.9279
6.84	4.9335
6.85	4.9381
6.86	4.9381
6.87	4.94205
6.88	4.94665
6.89	4.92363
6.9	4.93021
6.91	4.92922
6.92	4.92067
6.93	4.91672
6.94	4.93087
6.95	4.93054
6.96	4.91738
6.97	4.9279
6.98	4.92692
6.99	4.90652
7	4.91508
7.01	4.92133
7.02	4.91902
7.03	4.91935
7.04	4.91705
7.05	4.8983
7.06	4.90948
7.07	4.90323
7.08	4.89106
7.09	4.90718
7.1	4.89468
7.11	4.89139
7.12	4.90356
7.13	4.89698
7.14	4.89567
7.15	4.88975
7.16	4.88251
7.17	4.88909
7.18	4.88646
7.19	4.87527
7.2	4.86507
7.21	4.86211
7.22	4.86968
7.23	4.87593
7.24	4.86573
7.25	4.87067
7.26	4.86014
7.27	4.86047
7.28	4.86277
7.29	4.86244
7.3	4.85356
7.31	4.8506
7.32	4.83316
7.33	4.84698
7.34	4.84994
7.35	4.84238
7.36	4.85126
7.37	4.84698
7.38	4.85553
7.39	4.84369
7.4	4.82297
7.41	4.81277
7.42	4.81211
7.43	4.82659
7.44	4.81474
7.45	4.8177
7.46	4.82757
7.47	4.82099
7.48	4.82034
7.49	4.80849
7.5	4.80849
7.51	4.81014
7.52	4.80685
7.53	4.79501
7.54	4.80356
7.55	4.80356
7.56	4.80948
7.57	4.79764
7.58	4.79204
7.59	4.78415
7.6	4.80126
7.61	4.79928
7.62	4.79994
7.63	4.80093
7.64	4.80093
7.65	4.78612
7.66	4.77889
7.67	4.76737
7.68	4.77823
7.69	4.78152
7.7	4.77757
7.71	4.76573
7.72	4.77954
7.73	4.77823
7.74	4.77132
7.75	4.75783
7.76	4.77593
7.77	4.77691
7.78	4.76244
7.79	4.74829
7.8	4.75323
7.81	4.75981
7.82	4.77658
7.83	4.7575
7.84	4.75685
7.85	4.7631
7.86	4.75125
7.87	4.7575
7.88	4.74764
7.89	4.73514
7.9	4.74961
7.91	4.75027
7.92	4.7381
7.93	4.74862
7.94	4.74073
7.95	4.7427
7.96	4.74139
7.97	4.74632
7.98	4.73382
7.99	4.73448
8	4.73678
8.01	4.74336
8.02	4.73382
8.03	4.72428
8.04	4.72527
8.05	4.72329
8.06	4.73217
8.07	4.7279
8.08	4.72527
8.09	4.71244
8.1	4.71967
8.11	4.70684
8.12	4.71935
8.13	4.72165
8.14	4.71704
8.15	4.7154
8.16	4.71441
8.17	4.71573
8.18	4.69796
8.19	4.70158
8.2	4.71112
8.21	4.70915
8.22	4.71573
8.23	4.70882
8.24	4.70224
8.25	4.70125
8.26	4.69237
8.27	4.70586
8.28	4.69895
8.29	4.6848
8.3	4.69171
8.31	4.69895
8.32	4.68349
8.33	4.6825
8.34	4.69599
8.35	4.68119
8.36	4.68974
8.37	4.67954
8.38	4.68842
8.39	4.66934
8.4	4.66901
8.41	4.68744
8.42	4.67527
8.43	4.67954
8.44	4.66737
8.45	4.6677
8.46	4.67165
8.47	4.67823
8.48	4.67132
8.49	4.66112
8.5	4.67296
8.51	4.64928
8.52	4.67132
8.53	4.65948
8.54	4.65717
8.55	4.65191
8.56	4.65487
8.57	4.65191
8.58	4.65487
8.59	4.63776
8.6	4.63711
8.61	4.64303
8.62	4.64862
8.63	4.63645
8.64	4.63875
8.65	4.63447
8.66	4.63678
8.67	4.62888
8.68	4.63809
8.69	4.6279
8.7	4.62757
8.71	4.63316
8.72	4.63447
8.73	4.63579
8.74	4.63415
8.75	4.61934
8.76	4.62757
8.77	4.62855
8.78	4.6325
8.79	4.6177
8.8	4.62625
8.81	4.62099
8.82	4.62526
8.83	4.60914
8.84	4.61342
8.85	4.60421
8.86	4.61375
8.87	4.6098
8.88	4.60914
8.89	4.59368
8.9	4.61572
8.91	4.59533
8.92	4.59895
8.93	4.60783
8.94	4.62263
8.95	4.61243
8.96	4.60191
8.97	4.59303
8.98	4.59138
8.99	4.5927
9	4.59368
9.01	4.5973
9.02	4.60454
9.03	4.59138
9.04	4.59007
9.05	4.59171
9.06	4.59138
9.07	4.58612
9.08	4.57888
9.09	4.57592
9.1	4.58612
9.11	4.58381
9.12	4.59204
9.13	4.58217
9.14	4.56342
9.15	4.56638
9.16	4.58283
9.17	4.58349
9.18	4.57526
9.19	4.57559
9.2	4.56704
9.21	4.56408
9.22	4.57724
9.23	4.57625
9.24	4.55849
9.25	4.56177
9.26	4.56145
9.27	4.57099
9.28	4.56737
9.29	4.5677
9.3	4.56375
9.31	4.56638
9.32	4.55651
9.33	4.5677
9.34	4.55585
9.35	4.5598
9.36	4.5496
9.37	4.57066
9.38	4.56671
9.39	4.55223
9.4	4.54533
9.41	4.54401
9.42	4.55849
9.43	4.54566
9.44	4.55947
9.45	4.55783
9.46	4.54598
9.47	4.545
9.48	4.54072
9.49	4.54302
9.5	4.54105
9.51	4.54763
9.52	4.5552
9.53	4.5575
9.54	4.54006
9.55	4.54368
9.56	4.53677
9.57	4.54434
9.58	4.5371
9.59	4.5371
9.6	4.53348
9.61	4.53809
9.62	4.53052
9.63	4.53381
9.64	4.52855
9.65	4.53381
9.66	4.53118
9.67	4.52723
9.68	4.52888
9.69	4.53052
9.7	4.51967
9.71	4.52691
9.72	4.51769
9.73	4.52888
9.74	4.52625
9.75	4.52
9.76	4.52493
9.77	4.51473
9.78	4.51342
9.79	4.51572
9.8	4.51473
9.81	4.51638
9.82	4.51013
9.83	4.50815
9.84	4.52164
9.85	4.50783
9.86	4.51704
9.87	4.51375
9.88	4.51309
9.89	4.51737
9.9	4.51375
9.91	4.5075
9.92	4.50783
9.93	4.51276
9.94	4.5098
9.95	4.50914
9.96	4.51144
9.97	4.51243
9.98	4.50914
9.99	4.50454
10	4.50026
10.01	4.51276
10.02	4.50783
10.03	4.49763
10.04	4.50026
10.05	4.50421
10.06	4.50552
10.07	4.50158
10.08	4.49467
10.09	4.49631
10.1	4.5075
10.11	4.51276
10.12	4.49894
10.13	4.50815
10.14	4.49861
10.15	4.48809
10.16	4.49269
10.17	4.4973
10.18	4.49829
10.19	4.47855
10.2	4.49434
10.21	4.49269
10.22	4.48973
10.23	4.48052
10.24	4.47559
10.25	4.48611
10.26	4.48381
10.27	4.48019
10.28	4.48809
10.29	4.48381
10.3	4.48513
10.31	4.47592
10.32	4.4621
10.33	4.46539
10.34	4.47
10.35	4.46177
10.36	4.47197
10.37	4.47263
10.38	4.46802
10.39	4.46276
10.4	4.45848
10.41	4.46309
10.42	4.47657
10.43	4.47131
10.44	4.47394
10.45	4.46572
10.46	4.47361
10.47	4.46967
10.48	4.4723
10.49	4.46506
10.5	4.45519
10.51	4.45914
10.52	4.46375
10.53	4.47065
10.54	4.46638
10.55	4.47065
10.56	4.46901
10.57	4.45388
10.58	4.44467
10.59	4.45684
10.6	4.4519
10.61	4.44039
10.62	4.45059
10.63	4.45914
10.64	4.46276
10.65	4.44697
10.66	4.44828
10.67	4.44467
10.68	4.45881
10.69	4.45651
10.7	4.44927
10.71	4.45026
10.72	4.44302
10.73	4.44532
10.74	4.45124
10.75	4.43545
10.76	4.4519
10.77	4.44171
10.78	4.43381
10.79	4.42822
10.8	4.42032
10.81	4.43381
10.82	4.43151
10.83	4.43085
10.84	4.44467
10.85	4.43776
10.86	4.42756
10.87	4.43282
10.88	4.43118
10.89	4.43677
10.9	4.44269
10.91	4.43611
10.92	4.44335
10.93	4.43842
10.94	4.43118
10.95	4.44006
10.96	4.43414
10.97	4.43545
10.98	4.43513
10.99	4.41966
11	4.4371
11.01	4.41276
11.02	4.42723
11.03	4.42953
11.04	4.43249
11.05	4.42624
11.06	4.4269
11.07	4.42427
11.08	4.41506
11.09	4.41802
11.1	4.40815
11.11	4.42032
11.12	4.41374
11.13	4.41013
11.14	4.41243
11.15	4.42032
11.16	4.40026
11.17	4.41078
11.18	4.40355
11.19	4.3996
11.2	4.41309
11.21	4.41473
11.22	4.40453
11.23	4.41111
11.24	4.40947
11.25	4.40881
11.26	4.40618
11.27	4.42131
11.28	4.42624
11.29	4.41309
11.3	4.40848
11.31	4.41638
11.32	4.40947
11.33	4.41243
11.34	4.39302
11.35	4.40387
11.36	4.3996
11.37	4.38907
11.38	4.39466
11.39	4.40848
11.4	4.4098
11.41	4.40289
11.42	4.39894
11.43	4.40355
11.44	4.39532
11.45	4.39795
11.46	4.37098
11.47	4.38315
11.48	4.40256
11.49	4.39434
11.5	4.38973
11.51	4.39598
11.52	4.39368
11.53	4.4042
11.54	4.40059
11.55	4.3848
11.56	4.39795
11.57	4.40815
11.58	4.39302
11.59	4.3894
11.6	4.38743
11.61	4.39137
11.62	4.40026
11.63	4.39466
11.64	4.39203
11.65	4.38216
11.66	4.3917
11.67	4.38019
11.68	4.38315
11.69	4.36901
11.7	4.38874
11.71	4.38841
11.72	4.38545
11.73	4.38118
11.74	4.38907
11.75	4.38414
11.76	4.37098
11.77	4.3769
11.78	4.38315
11.79	4.37855
11.8	4.38085
11.81	4.36637
11.82	4.37295
11.83	4.37493
11.84	4.37427
11.85	4.3723
11.86	4.38052
11.87	4.37427
11.88	4.36868
11.89	4.38578
11.9	4.38216
11.91	4.3894
11.92	4.39466
11.93	4.37986
11.94	4.36966
11.95	4.37723
11.96	4.3769
11.97	4.37427
11.98	4.38447
11.99	4.37953
12	4.36835
12.01	4.3644
12.02	4.3723
12.03	4.37361
12.04	4.38973
12.05	4.3917
12.06	4.38677
12.07	4.38183
12.08	4.36637
12.09	4.37295
12.1	4.36012
12.11	4.37032
12.12	4.38414
12.13	4.36868
12.14	4.36506
12.15	4.36604
12.16	4.3723
12.17	4.36604
12.18	4.37361
12.19	4.36539
12.2	4.3667
12.21	4.36177
12.22	4.36374
12.23	4.37855
12.24	4.37361
12.25	4.37328
12.26	4.36637
12.27	4.35387
12.28	4.35618
12.29	4.36802
12.3	4.37065
12.31	4.34697
12.32	4.35256
12.33	4.35519
12.34	4.35848
12.35	4.35552
12.36	4.35091
12.37	4.34006
12.38	4.34269
12.39	4.35322
12.4	4.34499
12.41	4.33611
12.42	4.35354
12.43	4.33085
12.44	4.3417
12.45	4.3496
12.46	4.34861
12.47	4.35519
12.48	4.35223
12.49	4.35651
12.5	4.35256
12.51	4.36111
12.52	4.33874
12.53	4.34039
12.54	4.33512
12.55	4.33545
12.56	4.34795
12.57	4.34302
12.58	4.33973
12.59	4.33118
12.6	4.32624
12.61	4.34993
12.62	4.35058
12.63	4.344
12.64	4.34236
12.65	4.34269
12.66	4.35091
12.67	4.35354
12.68	4.34466
12.69	4.35486
12.7	4.34433
12.71	4.35091
12.72	4.34532
12.73	4.3394
12.74	4.3371
12.75	4.33841
12.76	4.33545
12.77	4.33381
12.78	4.32394
12.79	4.33841
12.8	4.34565
12.81	4.3394
12.82	4.33085
12.83	4.31966
12.84	4.33381
12.85	4.33282
12.86	4.34203
12.87	4.33052
12.88	4.33775
12.89	4.34104
12.9	4.3269
12.91	4.32854
12.92	4.33677
12.93	4.32164
12.94	4.3167
12.95	4.32328
12.96	4.32032
12.97	4.32558
12.98	4.33348
12.99	4.32723
13	4.32986
13.01	4.32164
13.02	4.31703
13.03	4.31736
13.04	4.31111
13.05	4.32361
13.06	4.30617
13.07	4.32262
13.08	4.32657
13.09	4.32262
13.1	4.33414
13.11	4.33874
13.12	4.32821
13.13	4.32032
13.14	4.32493
13.15	4.31999
13.16	4.32591
13.17	4.32196
13.18	4.31802
13.19	4.31769
13.2	4.31539
13.21	4.30782
13.22	4.33052
13.23	4.33183
13.24	4.33479
13.25	4.32756
13.26	4.33282
13.27	4.33249
13.28	4.32756
13.29	4.32164
13.3	4.31374
13.31	4.31769
13.32	4.31407
13.33	4.31374
13.34	4.3144
13.35	4.31177
13.36	4.30946
13.37	4.32229
13.38	4.31604
13.39	4.31769
13.4	4.31769
13.41	4.3144
13.42	4.3144
13.43	4.31703
13.44	4.3167
13.45	4.31078
13.46	4.3042
13.47	4.30519
13.48	4.31933
13.49	4.30848
13.5	4.31835
13.51	4.31703
13.52	4.31177
13.53	4.30256
13.54	4.30815
13.55	4.31539
13.56	4.30749
13.57	4.30914
13.58	4.31078
13.59	4.30914
13.6	4.29861
13.61	4.31308
13.62	4.3042
13.63	4.30914
13.64	4.3269
13.65	4.3167
13.66	4.30716
13.67	4.31144
13.68	4.31637
13.69	4.3042
13.7	4.29729
13.71	4.30716
13.72	4.31177
13.73	4.29992
13.74	4.29927
13.75	4.30321
13.76	4.31637
