"BIO-KINE ASCII FILE"
"_COMMENT"	"MOS-500 Spectrometer"
"_COMMENT"	"Kinetics measurement"
"_COMMENT"	"Y Unit : Volt,  X Unit : s"
"_COMMENT"	"Excitation wavelength : 380 nm"
"_COMMENT"	"Fentes bandwidth =  1 nm"
"_COMMENT"	"HV= 1000V"
"_COMMENT"	"Timebase  1 =  .01 s   5001 pts"
"_SFM"	"SFM-400 /S  Advanced mode"
"_SFM"	"Ratio : S1: 2.5, S2: 0, S3: 0, S4: 1"
"_SFM"	"Content : S1: , S2: , S3: , S4:"
"_SFM"	"Concentration : S1: , S2: , S3: , S4:"
"_SFM"	"Total volume : 209 µl  Flow : 3.5 mL/s"
"_SFM"	"Acquisition start :  10 ms before stop"
"_SFM"	"cuve=FC-15, s1=10 ml , s2=10 ml , s3=10 ml , s4=1.9 ml"
"_UNITX"	"s"
"_UNITY"	"Volt"
"_DELTAX"	0
"_DATA"
1e-300	2.21532
0.01	2.25019
0.02	2.34854
0.03	2.37322
0.04	2.40052
0.05	2.40874
0.06	2.42914
0.07	2.45118
0.08	2.46039
0.09	2.43309
0.1	2.44164
0.11	2.4594
0.12	2.49164
0.13	2.47914
0.14	2.47322
0.15	2.47486
0.16	2.48144
0.17	2.47125
0.18	2.46533
0.19	2.45875
0.2	2.48802
0.21	2.49559
0.22	2.49987
0.23	2.48802
0.24	2.49
0.25	2.49427
0.26	2.4673
0.27	2.48112
0.28	2.49164
0.29	2.46829
0.3	2.5071
0.31	2.50052
0.32	2.46335
0.33	2.52585
0.34	2.50447
0.35	2.52289
0.36	2.49065
0.37	2.51829
0.38	2.51467
0.39	2.50513
0.4	2.48506
0.41	2.4844
0.42	2.52421
0.43	2.49855
0.44	2.46927
0.45	2.51927
0.46	2.49954
0.47	2.49329
0.48	2.51006
0.49	2.50579
0.5	2.5298
0.51	2.5173
0.52	2.52552
0.53	2.49658
0.54	2.47322
0.55	2.48835
0.56	2.51335
0.57	2.53704
0.58	2.49888
0.59	2.50019
0.6	2.51039
0.61	2.50908
0.62	2.49559
0.63	2.50019
0.64	2.52355
0.65	2.48704
0.66	2.48572
0.67	2.51105
0.68	2.49329
0.69	2.47585
0.7	2.49362
0.71	2.4923
0.72	2.48901
0.73	2.50019
0.74	2.48967
0.75	2.49296
0.76	2.47552
0.77	2.50085
0.78	2.49559
0.79	2.48704
0.8	2.49987
0.81	2.51237
0.82	2.51434
0.83	2.49197
0.84	2.5048
0.85	2.50644
0.86	2.48144
0.87	2.48605
0.88	2.49855
0.89	2.49723
0.9	2.52454
0.91	2.50546
0.92	2.49691
0.93	2.49789
0.94	2.50546
0.95	2.49493
0.96	2.49329
0.97	2.48342
0.98	2.48704
0.99	2.49362
1	2.49098
1.01	2.5048
1.02	2.51434
1.03	2.50217
1.04	2.50546
1.05	2.47256
1.06	2.51302
1.07	2.51862
1.08	2.53474
1.09	2.50973
1.1	2.48605
1.11	2.50184
1.12	2.4821
1.13	2.4775
1.14	2.49493
1.15	2.5127
1.16	2.50052
1.17	2.50283
1.18	2.50973
1.19	2.51138
1.2	2.48473
1.21	2.50348
1.22	2.48704
1.23	2.48934
1.24	2.49065
1.25	2.49691
1.26	2.51171
1.27	2.4923
1.28	2.49658
1.29	2.51138
1.3	2.51664
1.31	2.49789
1.32	2.48046
1.33	2.4844
1.34	2.48506
1.35	2.48835
1.36	2.47717
1.37	2.48243
1.38	2.51862
1.39	2.50941
1.4	2.48704
1.41	2.47519
1.42	2.4923
1.43	2.4946
1.44	2.51006
1.45	2.48769
1.46	2.51434
1.47	2.48605
1.48	2.51335
1.49	2.4946
1.5	2.51138
1.51	2.51105
1.52	2.49822
1.53	2.48572
1.54	2.49888
1.55	2.50513
1.56	2.51796
1.57	2.51895
1.58	2.5173
1.59	2.50085
1.6	2.50414
1.61	2.52355
1.62	2.49526
1.63	2.50052
1.64	2.47848
1.65	2.47881
1.66	2.46401
1.67	2.47618
1.68	2.52092
1.69	2.48144
1.7	2.46105
1.71	2.48901
1.72	2.50513
1.73	2.48704
1.74	2.4775
1.75	2.48539
1.76	2.47717
1.77	2.49592
1.78	2.50579
1.79	2.48473
1.8	2.48769
1.81	2.50217
1.82	2.49888
1.83	2.52092
1.84	2.5025
1.85	2.50151
1.86	2.50743
1.87	2.51335
1.88	2.49098
1.89	2.48309
1.9	2.46138
1.91	2.48967
1.92	2.50842
1.93	2.48473
1.94	2.49
1.95	2.47388
1.96	2.46993
1.97	2.48408
1.98	2.48506
1.99	2.51993
2	2.52849
2.01	2.51927
2.02	2.49033
2.03	2.54066
2.04	2.50414
2.05	2.50414
2.06	2.48737
2.07	2.49559
2.08	2.48572
2.09	2.49493
2.1	2.49329
2.11	2.49756
2.12	2.48868
2.13	2.52684
2.14	2.51302
2.15	2.48506
2.16	2.49691
2.17	2.48638
2.18	2.52322
2.19	2.5048
2.2	2.49197
2.21	2.4923
2.22	2.5048
2.23	2.51006
2.24	2.51368
2.25	2.48802
2.26	2.48408
2.27	2.50348
2.28	2.48177
2.29	2.49493
2.3	2.47585
2.31	2.51631
2.32	2.49954
2.33	2.49921
2.34	2.47783
2.35	2.49987
2.36	2.51697
2.37	2.47256
2.38	2.52191
2.39	2.48901
2.4	2.48737
2.41	2.50019
2.42	2.46927
2.43	2.48835
2.44	2.50217
2.45	2.48868
2.46	2.48769
2.47	2.51566
2.48	2.48737
2.49	2.47585
2.5	2.49559
2.51	2.48967
2.52	2.49362
2.53	2.47421
2.54	2.5048
2.55	2.4844
2.56	2.47355
2.57	2.49559
2.58	2.49362
2.59	2.47783
2.6	2.49888
2.61	2.46631
2.62	2.47881
2.63	2.50118
2.64	2.50217
2.65	2.47388
2.66	2.49131
2.67	2.48638
2.68	2.48375
2.69	2.48704
2.7	2.49
2.71	2.50085
2.72	2.46861
2.73	2.465
2.74	2.51697
2.75	2.49756
2.76	2.50776
2.77	2.48375
2.78	2.52059
2.79	2.49164
2.8	2.5196
2.81	2.51105
2.82	2.48638
2.83	2.47388
2.84	2.49559
2.85	2.5025
2.86	2.51171
2.87	2.50677
2.88	2.5173
2.89	2.51796
2.9	2.51895
2.91	2.4844
2.92	2.46335
2.93	2.46204
2.94	2.47519
2.95	2.50381
2.96	2.47223
2.97	2.47881
2.98	2.48967
2.99	2.515
3	2.51335
3.01	2.50941
3.02	2.52816
3.03	2.50217
3.04	2.49
3.05	2.47848
3.06	2.52092
3.07	2.49394
3.08	2.51039
3.09	2.49855
3.1	2.47355
3.11	2.49493
3.12	2.52816
3.13	2.48177
3.14	2.45217
3.15	2.50612
3.16	2.49131
3.17	2.47486
3.18	2.48276
3.19	2.47256
3.2	2.49065
3.21	2.5127
3.22	2.48276
3.23	2.47454
3.24	2.47815
3.25	2.49756
3.26	2.50842
3.27	2.51664
3.28	2.50875
3.29	2.50546
3.3	2.49691
3.31	2.45842
3.32	2.48605
3.33	2.4946
3.34	2.49098
3.35	2.4946
3.36	2.48934
3.37	2.49296
3.38	2.51171
3.39	2.4923
3.4	2.47519
3.41	2.47717
3.42	2.49658
3.43	2.50908
3.44	2.46697
3.45	2.47421
3.46	2.4844
3.47	2.50381
3.48	2.51927
3.49	2.53375
3.5	2.48177
3.51	2.47158
3.52	2.49065
3.53	2.47454
3.54	2.49756
3.55	2.48506
3.56	2.45447
3.57	2.46993
3.58	2.49296
3.59	2.49625
3.6	2.46927
3.61	2.465
3.62	2.46796
3.63	2.46434
3.64	2.47848
3.65	2.47815
3.66	2.46105
3.67	2.46697
3.68	2.46171
3.69	2.46861
3.7	2.49493
3.71	2.49329
3.72	2.47815
3.73	2.48342
3.74	2.49098
3.75	2.52421
3.76	2.49427
3.77	2.48408
3.78	2.47158
3.79	2.47881
3.8	2.48177
3.81	2.50908
3.82	2.51072
3.83	2.48605
3.84	2.46631
3.85	2.50085
3.86	2.50316
3.87	2.45085
3.88	2.4571
3.89	2.46763
3.9	2.46796
3.91	2.49427
3.92	2.515
3.93	2.49559
3.94	2.50019
3.95	2.51862
3.96	2.5275
3.97	2.48671
3.98	2.48144
3.99	2.49098
4	2.48934
4.01	2.47651
4.02	2.48638
4.03	2.48539
4.04	2.48769
4.05	2.50447
4.06	2.49756
4.07	2.49756
4.08	2.47421
4.09	2.47881
4.1	2.48506
4.11	2.47947
4.12	2.4594
4.13	2.4821
4.14	2.44888
4.15	2.50381
4.16	2.48671
4.17	2.46236
4.18	2.49362
4.19	2.46894
4.2	2.47388
4.21	2.50941
4.22	2.49362
4.23	2.48144
4.24	2.47552
4.25	2.49263
4.26	2.51335
4.27	2.48605
4.28	2.51302
4.29	2.515
4.3	2.49131
4.31	2.50151
4.32	2.47355
4.33	2.48967
4.34	2.4946
4.35	2.48671
4.36	2.5025
4.37	2.48769
4.38	2.50842
4.39	2.48539
4.4	2.49888
4.41	2.49921
4.42	2.47947
4.43	2.49789
4.44	2.47783
4.45	2.49263
4.46	2.50151
4.47	2.49
4.48	2.45973
4.49	2.4821
4.5	2.48638
4.51	2.5298
4.52	2.50217
4.53	2.49065
4.54	2.48144
4.55	2.47848
4.56	2.47815
4.57	2.4946
4.58	2.49427
4.59	2.49592
4.6	2.46664
4.61	2.50677
4.62	2.50612
4.63	2.50677
4.64	2.49098
4.65	2.48737
4.66	2.47322
4.67	2.48934
4.68	2.4798
4.69	2.49427
4.7	2.49427
4.71	2.48802
4.72	2.47059
4.73	2.48868
4.74	2.4923
4.75	2.48013
4.76	2.47519
4.77	2.49362
4.78	2.46829
4.79	2.47125
4.8	2.49197
4.81	2.4946
4.82	2.48309
4.83	2.45348
4.84	2.48079
4.85	2.52552
4.86	2.53605
4.87	2.48046
4.88	2.49427
4.89	2.48539
4.9	2.47223
4.91	2.48967
4.92	2.49164
4.93	2.47585
4.94	2.48572
4.95	2.50085
4.96	2.4594
4.97	2.44986
4.98	2.45644
4.99	2.4548
5	2.47322
5.01	2.49263
5.02	2.48375
5.03	2.47421
5.04	2.49394
5.05	2.49592
5.06	2.49164
5.07	2.48506
5.08	2.49394
5.09	2.4798
5.1	2.49033
5.11	2.47552
5.12	2.48967
5.13	2.50151
5.14	2.47421
5.15	2.47223
5.16	2.47947
5.17	2.52092
5.18	2.50447
5.19	2.50842
5.2	2.51072
5.21	2.47059
5.22	2.49526
5.23	2.52322
5.24	2.49888
5.25	2.50842
5.26	2.49526
5.27	2.48868
5.28	2.46631
5.29	2.48408
5.3	2.49888
5.31	2.48638
5.32	2.47717
5.33	2.49756
5.34	2.4844
5.35	2.49065
5.36	2.50184
5.37	2.50217
5.38	2.48572
5.39	2.47421
5.4	2.45085
5.41	2.47848
5.42	2.50776
5.43	2.49362
5.44	2.47059
5.45	2.50809
5.46	2.48046
5.47	2.47914
5.48	2.47618
5.49	2.4571
5.5	2.47783
5.51	2.49065
5.52	2.46697
5.53	2.47914
5.54	2.47684
5.55	2.45513
5.56	2.49394
5.57	2.52026
5.58	2.50809
5.59	2.47717
5.6	2.47158
5.61	2.46269
5.62	2.4775
5.63	2.48737
5.64	2.46533
5.65	2.46269
5.66	2.48408
5.67	2.48539
5.68	2.51072
5.69	2.51171
5.7	2.47585
5.71	2.48276
5.72	2.4923
5.73	2.48967
5.74	2.48342
5.75	2.5071
5.76	2.48901
5.77	2.46993
5.78	2.49789
5.79	2.44625
5.8	2.46829
5.81	2.5048
5.82	2.47158
5.83	2.4775
5.84	2.49526
5.85	2.48144
5.86	2.45842
5.87	2.48638
5.88	2.47815
5.89	2.49756
5.9	2.5071
5.91	2.49362
5.92	2.48605
5.93	2.49493
5.94	2.47947
5.95	2.4594
5.96	2.48473
5.97	2.46171
5.98	2.45809
5.99	2.45973
6	2.47881
6.01	2.49658
6.02	2.50118
6.03	2.48408
6.04	2.48112
6.05	2.49263
6.06	2.48112
6.07	2.49033
6.08	2.49197
6.09	2.47256
6.1	2.50875
6.11	2.47486
6.12	2.4673
6.13	2.4798
6.14	2.4923
6.15	2.4923
6.16	2.50908
6.17	2.44493
6.18	2.46796
6.19	2.45743
6.2	2.48605
6.21	2.4775
6.22	2.49493
6.23	2.4946
6.24	2.49987
6.25	2.45381
6.26	2.48473
6.27	2.48177
6.28	2.48144
6.29	2.48769
6.3	2.48506
6.31	2.48572
6.32	2.48605
6.33	2.4775
6.34	2.47092
6.35	2.47026
6.36	2.47651
6.37	2.48605
6.38	2.50217
6.39	2.49164
6.4	2.4571
6.41	2.46335
6.42	2.48177
6.43	2.4571
6.44	2.46467
6.45	2.51368
6.46	2.48506
6.47	2.49625
6.48	2.45579
6.49	2.49855
6.5	2.47289
6.51	2.46565
6.52	2.47947
6.53	2.49789
6.54	2.51862
6.55	2.49559
6.56	2.48802
6.57	2.48309
6.58	2.50217
6.59	2.45907
6.6	2.48243
6.61	2.48309
6.62	2.48802
6.63	2.51533
6.64	2.48737
6.65	2.48276
6.66	2.4696
6.67	2.48473
6.68	2.50644
6.69	2.51138
6.7	2.47223
6.71	2.4946
6.72	2.47618
6.73	2.47158
6.74	2.48408
6.75	2.50118
6.76	2.47618
6.77	2.46302
6.78	2.46993
6.79	2.48342
6.8	2.48276
6.81	2.46993
6.82	2.49691
6.83	2.47717
6.84	2.49658
6.85	2.4571
6.86	2.47519
6.87	2.47519
6.88	2.50348
6.89	2.49559
6.9	2.47519
6.91	2.46269
6.92	2.48737
6.93	2.47059
6.94	2.51105
6.95	2.49954
6.96	2.49033
6.97	2.49394
6.98	2.49362
6.99	2.49493
7	2.48572
7.01	2.49592
7.02	2.46467
7.03	2.47289
7.04	2.45907
7.05	2.47289
7.06	2.47486
7.07	2.48967
7.08	2.46105
7.09	2.47158
7.1	2.47125
7.11	2.49065
7.12	2.46598
7.13	2.49691
7.14	2.48506
7.15	2.49526
7.16	2.46269
7.17	2.47289
7.18	2.47454
7.19	2.48013
7.2	2.48934
7.21	2.47585
7.22	2.46796
7.23	2.49263
7.24	2.47881
7.25	2.46006
7.26	2.46598
7.27	2.5196
7.28	2.49131
7.29	2.48737
7.3	2.48342
7.31	2.49691
7.32	2.48737
7.33	2.48638
7.34	2.48704
7.35	2.51039
7.36	2.49362
7.37	2.47618
7.38	2.46993
7.39	2.50316
7.4	2.47059
7.41	2.45414
7.42	2.45414
7.43	2.45875
7.44	2.48769
7.45	2.49329
7.46	2.49723
7.47	2.47585
7.48	2.47651
7.49	2.49888
7.5	2.49921
7.51	2.48046
7.52	2.4798
7.53	2.50941
7.54	2.48243
7.55	2.48473
7.56	2.49197
7.57	2.48473
7.58	2.47256
7.59	2.47125
7.6	2.4696
7.61	2.48177
7.62	2.47618
7.63	2.4696
7.64	2.47684
7.65	2.50842
7.66	2.48243
7.67	2.51796
7.68	2.50085
7.69	2.49362
7.7	2.49954
7.71	2.49559
7.72	2.48375
7.73	2.50052
7.74	2.52487
7.75	2.49033
7.76	2.48638
7.77	2.5071
7.78	2.49723
7.79	2.48144
7.8	2.46697
7.81	2.47519
7.82	2.44131
7.83	2.46993
7.84	2.47125
7.85	2.44
7.86	2.46598
7.87	2.49559
7.88	2.46171
7.89	2.46335
7.9	2.46763
7.91	2.47815
7.92	2.49822
7.93	2.50085
7.94	2.4844
7.95	2.47881
7.96	2.48342
7.97	2.47947
7.98	2.45743
7.99	2.44657
8	2.49658
8.01	2.48638
8.02	2.47388
8.03	2.48638
8.04	2.49493
8.05	2.49362
8.06	2.48144
8.07	2.47552
8.08	2.46269
8.09	2.49197
8.1	2.4798
8.11	2.46401
8.12	2.50052
8.13	2.51796
8.14	2.50052
8.15	2.48802
8.16	2.48769
8.17	2.49691
8.18	2.47848
8.19	2.4719
8.2	2.46894
8.21	2.50579
8.22	2.47848
8.23	2.48046
8.24	2.47059
8.25	2.46763
8.26	2.44888
8.27	2.45414
8.28	2.50941
8.29	2.48802
8.3	2.47618
8.31	2.48013
8.32	2.47289
8.33	2.49
8.34	2.49756
8.35	2.47947
8.36	2.45842
8.37	2.45019
8.38	2.45611
8.39	2.47848
8.4	2.50447
8.41	2.52783
8.42	2.49263
8.43	2.48737
8.44	2.5025
8.45	2.48967
8.46	2.48638
8.47	2.51105
8.48	2.48309
8.49	2.49855
8.5	2.46565
8.51	2.46927
8.52	2.49822
8.53	2.49362
8.54	2.48539
8.55	2.48408
8.56	2.49197
8.57	2.53013
8.58	2.48934
8.59	2.5071
8.6	2.47388
8.61	2.46302
8.62	2.47783
8.63	2.48309
8.64	2.51598
8.65	2.45973
8.66	2.48704
8.67	2.47651
8.68	2.46434
8.69	2.47289
8.7	2.47552
8.71	2.47848
8.72	2.49427
8.73	2.49427
8.74	2.48934
8.75	2.50151
8.76	2.47158
8.77	2.45118
8.78	2.47684
8.79	2.48506
8.8	2.51237
8.81	2.49296
8.82	2.46829
8.83	2.46829
8.84	2.47717
8.85	2.46368
8.86	2.47881
8.87	2.50447
8.88	2.52717
8.89	2.45315
8.9	2.46796
8.91	2.44493
8.92	2.44789
8.93	2.4548
8.94	2.4525
8.95	2.46565
8.96	2.47454
8.97	2.44625
8.98	2.46368
8.99	2.48276
9	2.4525
9.01	2.48473
9.02	2.48802
9.03	2.47815
9.04	2.51697
9.05	2.47125
9.06	2.47059
9.07	2.47223
9.08	2.46335
9.09	2.47421
9.1	2.46598
9.11	2.49098
9.12	2.48572
9.13	2.47717
9.14	2.47256
9.15	2.4946
9.16	2.46894
9.17	2.47618
9.18	2.44131
9.19	2.48046
9.2	2.48079
9.21	2.49131
9.22	2.47947
9.23	2.4821
9.24	2.46302
9.25	2.48046
9.26	2.46171
9.27	2.48408
9.28	2.45118
9.29	2.47552
9.3	2.49987
9.31	2.50085
9.32	2.4548
9.33	2.48013
9.34	2.46763
9.35	2.45348
9.36	2.49065
9.37	2.48079
9.38	2.47256
9.39	2.50052
9.4	2.45414
9.41	2.465
9.42	2.46993
9.43	2.47717
9.44	2.48079
9.45	2.48046
9.46	2.48243
9.47	2.47223
9.48	2.4798
9.49	2.4696
9.5	2.47158
9.51	2.47158
9.52	2.46335
9.53	2.4719
9.54	2.48934
9.55	2.4844
9.56	2.50513
9.57	2.49131
9.58	2.46335
9.59	2.44921
9.6	2.47223
9.61	2.49296
9.62	2.47519
9.63	2.50414
9.64	2.48638
9.65	2.47914
9.66	2.46105
9.67	2.43375
9.68	2.49098
9.69	2.48375
9.7	2.47158
9.71	2.47125
9.72	2.47947
9.73	2.47783
9.74	2.47158
9.75	2.46138
9.76	2.47717
9.77	2.48112
9.78	2.51039
9.79	2.4946
9.8	2.48046
9.81	2.48967
9.82	2.44986
9.83	2.47158
9.84	2.45414
9.85	2.47092
9.86	2.47454
9.87	2.48901
9.88	2.4923
9.89	2.47125
9.9	2.47092
9.91	2.47552
9.92	2.50381
9.93	2.48112
9.94	2.47585
9.95	2.48046
9.96	2.46598
9.97	2.46138
9.98	2.49131
9.99	2.47651
10	2.47388
10.01	2.48835
10.02	2.48276
10.03	2.47223
10.04	2.4594
10.05	2.51401
10.06	2.49427
10.07	2.44394
10.08	2.47947
10.09	2.48539
10.1	2.48079
10.11	2.44526
10.12	2.45546
10.13	2.48901
10.14	2.46565
10.15	2.47651
10.16	2.48408
10.17	2.44789
10.18	2.46796
10.19	2.48342
10.2	2.47355
10.21	2.52092
10.22	2.49131
10.23	2.46829
10.24	2.4798
10.25	2.47454
10.26	2.48901
10.27	2.46269
10.28	2.47914
10.29	2.48342
10.3	2.47289
10.31	2.4923
10.32	2.50019
10.33	2.49033
10.34	2.50612
10.35	2.50612
10.36	2.46796
10.37	2.49098
10.38	2.47289
10.39	2.46171
10.4	2.43506
10.41	2.48967
10.42	2.45579
10.43	2.44032
10.44	2.44164
10.45	2.48408
10.46	2.48704
10.47	2.49427
10.48	2.49526
10.49	2.48704
10.5	2.45579
10.51	2.4594
10.52	2.49033
10.53	2.46894
10.54	2.47158
10.55	2.51862
10.56	2.49098
10.57	2.47684
10.58	2.4844
10.59	2.47783
10.6	2.46467
10.61	2.48704
10.62	2.48243
10.63	2.53079
10.64	2.49394
10.65	2.46302
10.66	2.46204
10.67	2.50809
10.68	2.46598
10.69	2.47026
10.7	2.48704
10.71	2.47815
10.72	2.43703
10.73	2.48243
10.74	2.47158
10.75	2.48375
10.76	2.46434
10.77	2.47322
10.78	2.48901
10.79	2.47059
10.8	2.48177
10.81	2.47585
10.82	2.47322
10.83	2.50151
10.84	2.48539
10.85	2.48375
10.86	2.47651
10.87	2.47454
10.88	2.49329
10.89	2.49987
10.9	2.48375
10.91	2.47717
10.92	2.46697
10.93	2.47355
10.94	2.4844
10.95	2.48967
10.96	2.45842
10.97	2.46072
10.98	2.46105
10.99	2.47618
11	2.47585
11.01	2.47092
11.02	2.49526
11.03	2.48638
11.04	2.45085
11.05	2.4798
11.06	2.51237
11.07	2.47651
11.08	2.48046
11.09	2.48473
11.1	2.47388
11.11	2.48835
11.12	2.47059
11.13	2.46894
11.14	2.47947
11.15	2.49921
11.16	2.51302
11.17	2.49723
11.18	2.4798
11.19	2.46631
11.2	2.46697
11.21	2.48408
11.22	2.50151
11.23	2.47815
11.24	2.46763
11.25	2.4719
11.26	2.47717
11.27	2.46829
11.28	2.46072
11.29	2.46269
11.3	2.47519
11.31	2.49427
11.32	2.46763
11.33	2.49526
11.34	2.47914
11.35	2.47848
11.36	2.44756
11.37	2.46138
11.38	2.48046
11.39	2.4775
11.4	2.47815
11.41	2.4798
11.42	2.47322
11.43	2.46993
11.44	2.46993
11.45	2.49526
11.46	2.51105
11.47	2.47618
11.48	2.49691
11.49	2.45842
11.5	2.46302
11.51	2.44921
11.52	2.44328
11.53	2.44328
11.54	2.46302
11.55	2.47783
11.56	2.46894
11.57	2.46993
11.58	2.46927
11.59	2.48144
11.6	2.48835
11.61	2.47092
11.62	2.45315
11.63	2.46533
11.64	2.47552
11.65	2.4696
11.66	2.49559
11.67	2.47552
11.68	2.46796
11.69	2.46697
11.7	2.46171
11.71	2.47914
11.72	2.48901
11.73	2.47519
11.74	2.465
11.75	2.45184
11.76	2.45842
11.77	2.50381
11.78	2.48835
11.79	2.44493
11.8	2.45677
11.81	2.47618
11.82	2.47421
11.83	2.48473
11.84	2.47684
11.85	2.49362
11.86	2.47388
11.87	2.49888
11.88	2.48539
11.89	2.46565
11.9	2.46335
11.91	2.48704
11.92	2.49526
11.93	2.46927
11.94	2.46467
11.95	2.48112
11.96	2.48704
11.97	2.52092
11.98	2.49098
11.99	2.48901
12	2.46993
12.01	2.47125
12.02	2.47256
12.03	2.48408
12.04	2.47388
12.05	2.46401
12.06	2.49954
12.07	2.46565
12.08	2.44954
12.09	2.49329
12.1	2.4923
12.11	2.49296
12.12	2.51006
12.13	2.50052
12.14	2.4719
12.15	2.48177
12.16	2.45842
12.17	2.45579
12.18	2.44986
12.19	2.46598
12.2	2.4696
12.21	2.47355
12.22	2.47947
12.23	2.43934
12.24	2.47158
12.25	2.49065
12.26	2.4696
12.27	2.45776
12.28	2.48473
12.29	2.48802
12.3	2.47223
12.31	2.4696
12.32	2.51796
12.33	2.50348
12.34	2.46664
12.35	2.49098
12.36	2.46598
12.37	2.47651
12.38	2.46565
12.39	2.49
12.4	2.47552
12.41	2.4719
12.42	2.47125
12.43	2.46269
12.44	2.48934
12.45	2.47848
12.46	2.46302
12.47	2.50842
12.48	2.47651
12.49	2.47585
12.5	2.465
12.51	2.47256
12.52	2.48473
12.53	2.50052
12.54	2.45776
12.55	2.46763
12.56	2.45315
12.57	2.45282
12.58	2.46927
12.59	2.47026
12.6	2.46335
12.61	2.4525
12.62	2.48144
12.63	2.48506
12.64	2.47783
12.65	2.46236
12.66	2.46467
12.67	2.46302
12.68	2.47223
12.69	2.48046
12.7	2.48802
12.71	2.49197
12.72	2.4798
12.73	2.48802
12.74	2.4696
12.75	2.4696
12.76	2.4696
12.77	2.48046
12.78	2.48375
12.79	2.48375
12.8	2.47519
12.81	2.50184
12.82	2.49394
12.83	2.4821
12.84	2.50677
12.85	2.47651
12.86	2.45907
12.87	2.4423
12.88	2.46927
12.89	2.49526
12.9	2.47717
12.91	2.46533
12.92	2.48112
12.93	2.48934
12.94	2.46993
12.95	2.45414
12.96	2.48506
12.97	2.46204
12.98	2.43144
12.99	2.46598
13	2.47947
13.01	2.47848
13.02	2.46565
13.03	2.48144
13.04	2.4821
13.05	2.48342
13.06	2.47421
13.07	2.46434
13.08	2.47684
13.09	2.48243
13.1	2.4798
13.11	2.46697
13.12	2.49197
13.13	2.47059
13.14	2.49888
13.15	2.46993
13.16	2.47618
13.17	2.48704
13.18	2.46368
13.19	2.47026
13.2	2.47552
13.21	2.44131
13.22	2.44559
13.23	2.45381
13.24	2.49691
13.25	2.48375
13.26	2.47552
13.27	2.48342
13.28	2.47454
13.29	2.46171
13.3	2.47585
13.31	2.46039
13.32	2.44197
13.33	2.44263
13.34	2.4821
13.35	2.48802
13.36	2.4775
13.37	2.45151
13.38	2.48375
13.39	2.46598
13.4	2.45809
13.41	2.50052
13.42	2.44263
13.43	2.46171
13.44	2.51171
13.45	2.46335
13.46	2.48704
13.47	2.44789
13.48	2.45546
13.49	2.49658
13.5	2.50217
13.51	2.48112
13.52	2.47717
13.53	2.49559
13.54	2.47092
13.55	2.47848
13.56	2.48704
13.57	2.46829
13.58	2.47026
13.59	2.46269
13.6	2.47388
13.61	2.48309
13.62	2.49592
13.63	2.49625
13.64	2.47486
13.65	2.46533
13.66	2.44394
13.67	2.45973
13.68	2.47651
13.69	2.45019
13.7	2.44954
13.71	2.47256
13.72	2.46236
13.73	2.42421
13.74	2.47454
13.75	2.48013
