"BIO-KINE ASCII FILE"
"_COMMENT"	"MOS-500 Spectrometer"
"_COMMENT"	"Kinetics measurement"
"_COMMENT"	"Y Unit : Volt,  X Unit : s"
"_COMMENT"	"Excitation wavelength : 380 nm"
"_COMMENT"	"Fentes bandwidth =  1 nm"
"_COMMENT"	"HV= 700V"
"_COMMENT"	"Timebase  1 =  .01 s   3001 pts"
"_SFM"	"SFM-400 /S  Advanced mode"
"_SFM"	"Ratio : S1: 2.5, S2: 0, S3: 0, S4: 1"
"_SFM"	"Content : S1: , S2: , S3: , S4:"
"_SFM"	"Concentration : S1: , S2: , S3: , S4:"
"_SFM"	"Total volume : 209 µl  Flow : 3.5 mL/s"
"_SFM"	"Acquisition start :  10 ms before stop"
"_SFM"	"cuve=FC-15, s1=10 ml , s2=10 ml , s3=10 ml , s4=1.9 ml"
"_UNITX"	"s"
"_UNITY"	"Volt"
"_DELTAX"	0
"_DATA"
1e-300	7.88358
0.01	8.50728
0.02	8.9109
0.03	8.96222
0.04	8.94906
0.05	8.96387
0.06	8.97867
0.07	8.98163
0.08	8.96715
0.09	8.95531
0.1	8.98064
0.11	8.96979
0.12	8.98919
0.13	8.99643
0.14	8.99544
0.15	8.98426
0.16	8.97373
0.17	8.97538
0.18	8.97933
0.19	8.96715
0.2	8.96123
0.21	8.96222
0.22	8.95827
0.23	8.94742
0.24	8.9609
0.25	8.95169
0.26	8.94248
0.27	8.93525
0.28	8.94314
0.29	8.92143
0.3	8.91682
0.31	8.92472
0.32	8.93327
0.33	8.92176
0.34	8.91255
0.35	8.90926
0.36	8.9109
0.37	8.91189
0.38	8.904
0.39	8.88689
0.4	8.88525
0.41	8.87505
0.42	8.87538
0.43	8.87472
0.44	8.86551
0.45	8.87044
0.46	8.85399
0.47	8.85893
0.48	8.85992
0.49	8.85301
0.5	8.84117
0.51	8.83294
0.52	8.81518
0.53	8.82307
0.54	8.81551
0.55	8.80202
0.56	8.80169
0.57	8.79412
0.58	8.78491
0.59	8.78557
0.6	8.77274
0.61	8.7632
0.62	8.74511
0.63	8.75103
0.64	8.73327
0.65	8.72768
0.66	8.73031
0.67	8.71386
0.68	8.70958
0.69	8.71518
0.7	8.7132
0.71	8.68327
0.72	8.67307
0.73	8.68491
0.74	8.68261
0.75	8.66715
0.76	8.66419
0.77	8.6461
0.78	8.64116
0.79	8.63919
0.8	8.63458
0.81	8.61978
0.82	8.60859
0.83	8.59379
0.84	8.60465
0.85	8.60169
0.86	8.60662
0.87	8.5803
0.88	8.57998
0.89	8.57011
0.9	8.55826
0.91	8.5428
0.92	8.55432
0.93	8.53557
0.94	8.55136
0.95	8.54412
0.96	8.51484
0.97	8.52076
0.98	8.50925
0.99	8.5132
1	8.50399
1.01	8.48918
1.02	8.48918
1.03	8.48063
1.04	8.48129
1.05	8.48984
1.06	8.47438
1.07	8.46912
1.08	8.45037
1.09	8.45859
1.1	8.43293
1.11	8.42701
1.12	8.42931
1.13	8.42208
1.14	8.4155
1.15	8.39938
1.16	8.39806
1.17	8.38852
1.18	8.38754
1.19	8.37043
1.2	8.36352
1.21	8.36352
1.22	8.35662
1.23	8.34148
1.24	8.35234
1.25	8.353
1.26	8.328
1.27	8.32043
1.28	8.31122
1.29	8.30596
1.3	8.3155
1.31	8.29082
1.32	8.28589
1.33	8.28753
1.34	8.27339
1.35	8.28063
1.36	8.27405
1.37	8.24707
1.38	8.25398
1.39	8.24938
1.4	8.25563
1.41	8.25102
1.42	8.21878
1.43	8.21023
1.44	8.20332
1.45	8.20859
1.46	8.19049
1.47	8.19016
1.48	8.18523
1.49	8.17569
1.5	8.17076
1.51	8.18227
1.52	8.15266
1.53	8.13819
1.54	8.14444
1.55	8.13589
1.56	8.11582
1.57	8.13029
1.58	8.12306
1.59	8.11286
1.6	8.12273
1.61	8.10496
1.62	8.0849
1.63	8.08227
1.64	8.07569
1.65	8.06746
1.66	8.07404
1.67	8.06417
1.68	8.04773
1.69	8.04937
1.7	8.04049
1.71	8.02306
1.72	8.03819
1.73	8.02141
1.74	8.00595
1.75	8.00661
1.76	8.01417
1.77	7.9895
1.78	7.97634
1.79	7.98819
1.8	7.96384
1.81	7.96647
1.82	7.96187
1.83	7.93161
1.84	7.93457
1.85	7.93522
1.86	7.91976
1.87	7.93391
1.88	7.92338
1.89	7.90332
1.9	7.89542
1.91	7.89213
1.92	7.89838
1.93	7.89575
1.94	7.88851
1.95	7.88128
1.96	7.86187
1.97	7.86252
1.98	7.84048
1.99	7.83555
2	7.83423
2.01	7.81285
2.02	7.81516
2.03	7.8066
2.04	7.79706
2.05	7.7895
2.06	7.79312
2.07	7.79114
2.08	7.77996
2.09	7.77108
2.1	7.7691
2.11	7.76746
2.12	7.73555
2.13	7.73884
2.14	7.74575
2.15	7.73127
2.16	7.72535
2.17	7.71548
2.18	7.71614
2.19	7.70627
2.2	7.69311
2.21	7.6941
2.22	7.6691
2.23	7.67173
2.24	7.68686
2.25	7.67699
2.26	7.66778
2.27	7.66022
2.28	7.65101
2.29	7.64574
2.3	7.61712
2.31	7.62107
2.32	7.60857
2.33	7.61055
2.34	7.59837
2.35	7.57929
2.36	7.57995
2.37	7.59147
2.38	7.58489
2.39	7.56745
2.4	7.56285
2.41	7.55725
2.42	7.54508
2.43	7.54574
2.44	7.53127
2.45	7.53982
2.46	7.52732
2.47	7.51252
2.48	7.49771
2.49	7.51153
2.5	7.49738
2.51	7.49245
2.52	7.49245
2.53	7.49048
2.54	7.49541
2.55	7.47732
2.56	7.47732
2.57	7.47173
2.58	7.44673
2.59	7.43061
2.6	7.42172
2.61	7.42205
2.62	7.42666
2.63	7.42633
2.64	7.40297
2.65	7.39311
2.66	7.39738
2.67	7.38718
2.68	7.36778
2.69	7.36449
2.7	7.37732
2.71	7.35429
2.72	7.3533
2.73	7.33883
2.74	7.34409
2.75	7.33455
2.76	7.3385
2.77	7.32402
2.78	7.30462
2.79	7.30231
2.8	7.30922
2.81	7.29343
2.82	7.27896
2.83	7.2908
2.84	7.28356
2.85	7.2806
2.86	7.27896
2.87	7.25856
2.88	7.25626
2.89	7.2579
2.9	7.24244
2.91	7.23225
2.92	7.22665
2.93	7.22468
2.94	7.2079
2.95	7.19507
2.96	7.19409
2.97	7.20165
2.98	7.18192
2.99	7.18685
3	7.18159
3.01	7.18718
3.02	7.16843
3.03	7.15099
3.04	7.14869
3.05	7.14639
3.06	7.15757
3.07	7.13882
3.08	7.11974
3.09	7.1204
3.1	7.13915
3.11	7.11612
3.12	7.10691
3.13	7.11086
3.14	7.10264
3.15	7.08882
3.16	7.07829
3.17	7.08816
3.18	7.07928
3.19	7.06645
3.2	7.06481
3.21	7.05954
3.22	7.04639
3.23	7.05297
3.24	7.04935
3.25	7.04606
3.26	7.02994
3.27	7.02829
3.28	7.01316
3.29	7.01086
3.3	7.00428
3.31	7.00099
3.32	7.00263
3.33	6.97599
3.34	6.97434
3.35	6.98816
3.36	6.96809
3.37	6.95461
3.38	6.96086
3.39	6.95592
3.4	6.95099
3.41	6.94737
3.42	6.93684
3.43	6.91941
3.44	6.92007
3.45	6.92566
3.46	6.91217
3.47	6.8977
3.48	6.89408
3.49	6.88947
3.5	6.88421
3.51	6.88684
3.52	6.88882
3.53	6.87895
3.54	6.85526
3.55	6.85
3.56	6.85559
3.57	6.85822
3.58	6.8296
3.59	6.82829
3.6	6.82599
3.61	6.8273
3.62	6.8227
3.63	6.82599
3.64	6.81546
3.65	6.80855
3.66	6.80131
3.67	6.79901
3.68	6.78519
3.69	6.77631
3.7	6.76908
3.71	6.78092
3.72	6.76809
3.73	6.76973
3.74	6.75329
3.75	6.74177
3.76	6.74473
3.77	6.73651
3.78	6.72993
3.79	6.72631
3.8	6.72335
3.81	6.71611
3.82	6.72532
3.83	6.71315
3.84	6.69901
3.85	6.69539
3.86	6.69342
3.87	6.67072
3.88	6.67368
3.89	6.68355
3.9	6.65855
3.91	6.6523
3.92	6.65789
3.93	6.63881
3.94	6.64177
3.95	6.64835
3.96	6.63881
3.97	6.61874
3.98	6.61743
3.99	6.61644
4	6.62072
4.01	6.62335
4.02	6.61216
4.03	6.60558
4.04	6.59605
4.05	6.58881
4.06	6.58651
4.07	6.60065
4.08	6.57433
4.09	6.5694
4.1	6.56381
4.11	6.56052
4.12	6.55723
4.13	6.54999
4.14	6.54703
4.15	6.52828
4.16	6.53354
4.17	6.53124
4.18	6.51775
4.19	6.51808
4.2	6.51841
4.21	6.51512
4.22	6.50163
4.23	6.48913
4.24	6.49177
4.25	6.4944
4.26	6.49374
4.27	6.49078
4.28	6.47269
4.29	6.47236
4.3	6.46348
4.31	6.46019
4.32	6.45624
4.33	6.45229
4.34	6.44473
4.35	6.43584
4.36	6.42926
4.37	6.4194
4.38	6.42367
4.39	6.41479
4.4	6.41479
4.41	6.41611
4.42	6.39966
4.43	6.39834
4.44	6.39505
4.45	6.37071
4.46	6.3763
4.47	6.3842
4.48	6.36545
4.49	6.36446
4.5	6.36347
4.51	6.36907
4.52	6.36578
4.53	6.349
4.54	6.34735
4.55	6.33847
4.56	6.34209
4.57	6.32104
4.58	6.33124
4.59	6.31709
4.6	6.3036
4.61	6.32071
4.62	6.32795
4.63	6.30426
4.64	6.29505
4.65	6.29209
4.66	6.28452
4.67	6.29143
4.68	6.27992
4.69	6.28321
4.7	6.28058
4.71	6.27893
4.72	6.26808
4.73	6.26018
4.74	6.26051
4.75	6.24669
4.76	6.23386
4.77	6.23584
4.78	6.24209
4.79	6.249
4.8	6.2365
4.81	6.22202
4.82	6.22432
4.83	6.22432
4.84	6.21446
4.85	6.21511
4.86	6.20031
4.87	6.20623
4.88	6.19899
4.89	6.18781
4.9	6.19044
4.91	6.18419
4.92	6.17366
4.93	6.16741
4.94	6.15261
4.95	6.16544
4.96	6.16511
4.97	6.14899
4.98	6.14537
4.99	6.14801
5	6.14274
5.01	6.13419
5.02	6.13551
5.03	6.13748
5.04	6.12301
5.05	6.12498
5.06	6.10985
5.07	6.12465
5.08	6.10656
5.09	6.10656
5.1	6.09603
5.11	6.09504
5.12	6.0934
5.13	6.10195
5.14	6.07629
5.15	6.08419
5.16	6.07991
5.17	6.07004
5.18	6.06511
5.19	6.06149
5.2	6.05623
5.21	6.06281
5.22	6.05689
5.23	6.04142
5.24	6.04504
5.25	6.02991
5.26	6.02366
5.27	6.02859
5.28	6.01906
5.29	6.02794
5.3	6.01445
5.31	6.0184
5.32	6.01478
5.33	6.01083
5.34	5.99702
5.35	6.00228
5.36	5.98945
5.37	5.98123
5.38	5.98484
5.39	5.98879
5.4	5.98616
5.41	5.97892
5.42	5.98123
5.43	5.96017
5.44	5.96807
5.45	5.95951
5.46	5.93484
5.47	5.95392
5.48	5.94668
5.49	5.9457
5.5	5.93254
5.51	5.92728
5.52	5.92826
5.53	5.92991
5.54	5.91741
5.55	5.91149
5.56	5.91609
5.57	5.92103
5.58	5.91872
5.59	5.90326
5.6	5.89767
5.61	5.90589
5.62	5.89701
5.63	5.89701
5.64	5.88714
5.65	5.88122
5.66	5.88747
5.67	5.88155
5.68	5.8753
5.69	5.88385
5.7	5.86247
5.71	5.8707
5.72	5.86872
5.73	5.87168
5.74	5.86017
5.75	5.85589
5.76	5.85852
5.77	5.84668
5.78	5.85227
5.79	5.84931
5.8	5.83517
5.81	5.82859
5.82	5.8299
5.83	5.84109
5.84	5.83287
5.85	5.82201
5.86	5.81708
5.87	5.81444
5.88	5.81938
5.89	5.82135
5.9	5.80129
5.91	5.79931
5.92	5.79175
5.93	5.79306
5.94	5.80326
5.95	5.78615
5.96	5.77596
5.97	5.77694
5.98	5.7776
5.99	5.77365
6	5.7628
6.01	5.75622
6.02	5.76444
6.03	5.75227
6.04	5.75096
6.05	5.75589
6.06	5.74799
6.07	5.73451
6.08	5.7378
6.09	5.73385
6.1	5.7322
6.11	5.72793
6.12	5.72332
6.13	5.72036
6.14	5.70391
6.15	5.70852
6.16	5.7128
6.17	5.70918
6.18	5.71707
6.19	5.70128
6.2	5.70556
6.21	5.70161
6.22	5.70293
6.23	5.69832
6.24	5.68582
6.25	5.69799
6.26	5.68681
6.27	5.68155
6.28	5.68747
6.29	5.6697
6.3	5.65852
6.31	5.67365
6.32	5.66806
6.33	5.67431
6.34	5.6674
6.35	5.66082
6.36	5.66148
6.37	5.65391
6.38	5.64503
6.39	5.64437
6.4	5.65424
6.41	5.65194
6.42	5.63681
6.43	5.6322
6.44	5.63911
6.45	5.63253
6.46	5.63023
6.47	5.62496
6.48	5.62431
6.49	5.62464
6.5	5.62069
6.51	5.6072
6.52	5.60621
6.53	5.60654
6.54	5.6026
6.55	5.6049
6.56	5.58977
6.57	5.58944
6.58	5.60062
6.59	5.58483
6.6	5.59108
6.61	5.59042
6.62	5.58516
6.63	5.56411
6.64	5.57365
6.65	5.57102
6.66	5.56641
6.67	5.57134
6.68	5.55457
6.69	5.55687
6.7	5.55259
6.71	5.55029
6.72	5.54536
6.73	5.55128
6.74	5.54503
6.75	5.53976
6.76	5.53286
6.77	5.53845
6.78	5.54437
6.79	5.54108
6.8	5.53549
6.81	5.53154
6.82	5.52101
6.83	5.52726
6.84	5.52891
6.85	5.52134
6.86	5.51246
6.87	5.51246
6.88	5.51871
6.89	5.51805
6.9	5.4993
6.91	5.51345
6.92	5.50588
6.93	5.49503
6.94	5.49305
6.95	5.49601
6.96	5.4993
6.97	5.50193
6.98	5.49075
6.99	5.50062
7	5.49733
7.01	5.4822
7.02	5.47134
7.03	5.47693
7.04	5.47628
7.05	5.45687
7.06	5.47167
7.07	5.4743
7.08	5.46838
7.09	5.45917
7.1	5.45983
7.11	5.45095
7.12	5.45522
7.13	5.45917
7.14	5.44206
7.15	5.44042
7.16	5.44042
7.17	5.43516
7.18	5.42989
7.19	5.43154
7.2	5.43417
7.21	5.41838
7.22	5.42134
7.23	5.43187
7.24	5.43417
7.25	5.43187
7.26	5.42299
7.27	5.42792
7.28	5.42299
7.29	5.4118
7.3	5.40588
7.31	5.40489
7.32	5.41871
7.33	5.41312
7.34	5.4141
7.35	5.40226
7.36	5.39404
7.37	5.39338
7.38	5.3993
7.39	5.397
7.4	5.39733
7.41	5.39239
7.42	5.37989
7.43	5.38022
7.44	5.37562
7.45	5.37989
7.46	5.38877
7.47	5.37562
7.48	5.36279
7.49	5.36575
7.5	5.36805
7.51	5.36739
7.52	5.3641
7.53	5.36443
7.54	5.35719
7.55	5.35785
7.56	5.35325
7.57	5.34798
7.58	5.34338
7.59	5.34107
7.6	5.35061
7.61	5.34535
7.62	5.34765
7.63	5.35292
7.64	5.34107
7.65	5.32956
7.66	5.33022
7.67	5.34272
7.68	5.34239
7.69	5.32561
7.7	5.34206
7.71	5.32923
7.72	5.33252
7.73	5.33318
7.74	5.32265
7.75	5.32923
7.76	5.32331
7.77	5.32792
7.78	5.31739
7.79	5.32298
7.8	5.30851
7.81	5.3016
7.82	5.30292
7.83	5.30686
7.84	5.30851
7.85	5.30949
7.86	5.32068
7.87	5.30686
7.88	5.28877
7.89	5.29568
7.9	5.29864
7.91	5.29403
7.92	5.29897
7.93	5.29107
7.94	5.29568
7.95	5.29272
7.96	5.29403
7.97	5.29239
7.98	5.28581
7.99	5.25949
8	5.27364
8.01	5.2812
8.02	5.27331
8.03	5.26838
8.04	5.26969
8.05	5.26969
8.06	5.27232
8.07	5.27298
8.08	5.25522
8.09	5.25456
8.1	5.2516
8.11	5.25818
8.12	5.26015
8.13	5.25949
8.14	5.24535
8.15	5.25061
8.16	5.24535
8.17	5.24337
8.18	5.23877
8.19	5.23581
8.2	5.24337
8.21	5.23087
8.22	5.22758
8.23	5.22923
8.24	5.22956
8.25	5.22002
8.26	5.22429
8.27	5.21574
8.28	5.21607
8.29	5.21706
8.3	5.22824
8.31	5.22101
8.32	5.21508
8.33	5.20883
8.34	5.21081
8.35	5.20982
8.36	5.19699
8.37	5.21476
8.38	5.20949
8.39	5.20949
8.4	5.20719
8.41	5.20949
8.42	5.20522
8.43	5.19831
8.44	5.19831
8.45	5.18515
8.46	5.18087
8.47	5.2039
8.48	5.19765
8.49	5.19502
8.5	5.18975
8.51	5.1789
8.52	5.19041
8.53	5.17857
8.54	5.18844
8.55	5.18087
8.56	5.1789
8.57	5.16903
8.58	5.19633
8.59	5.17298
8.6	5.17462
8.61	5.17693
8.62	5.18153
8.63	5.16903
8.64	5.17627
8.65	5.16804
8.66	5.17923
8.67	5.16804
8.68	5.16475
8.69	5.17298
8.7	5.16837
8.71	5.16771
8.72	5.16081
8.73	5.1585
8.74	5.15258
8.75	5.14863
8.76	5.15752
8.77	5.15225
8.78	5.16048
8.79	5.15324
8.8	5.14831
8.81	5.14633
8.82	5.14633
8.83	5.15719
8.84	5.14666
8.85	5.13811
8.86	5.13021
8.87	5.13186
8.88	5.13942
8.89	5.13153
8.9	5.1312
8.91	5.13877
8.92	5.13284
8.93	5.13252
8.94	5.12857
8.95	5.12331
8.96	5.11377
8.97	5.1164
8.98	5.13712
8.99	5.11837
9	5.12232
9.01	5.12692
9.02	5.11837
9.03	5.11344
9.04	5.11508
9.05	5.11377
9.06	5.11475
9.07	5.10916
9.08	5.10752
9.09	5.11113
9.1	5.11048
9.11	5.11344
9.12	5.09962
9.13	5.10883
9.14	5.11804
9.15	5.11278
9.16	5.10686
9.17	5.10192
9.18	5.10094
9.19	5.10488
9.2	5.10291
9.21	5.09995
9.22	5.09403
9.23	5.09403
9.24	5.09008
9.25	5.09304
9.26	5.09995
9.27	5.09041
9.28	5.08547
9.29	5.08186
9.3	5.07824
9.31	5.08909
9.32	5.08745
9.33	5.08778
9.34	5.09041
9.35	5.07659
9.36	5.08383
9.37	5.07133
9.38	5.07528
9.39	5.07857
9.4	5.07824
9.41	5.07922
9.42	5.06574
9.43	5.0789
9.44	5.07758
9.45	5.06311
9.46	5.05982
9.47	5.06245
9.48	5.0585
9.49	5.06245
9.5	5.06541
9.51	5.06574
9.52	5.06936
9.53	5.06376
9.54	5.06047
9.55	5.06376
9.56	5.05718
9.57	5.05883
9.58	5.05192
9.59	5.05653
9.6	5.05718
9.61	5.04534
9.62	5.05324
9.63	5.06245
9.64	5.0608
9.65	5.0483
9.66	5.046
9.67	5.04271
9.68	5.046
9.69	5.04172
9.7	5.03876
9.71	5.04468
9.72	5.03843
9.73	5.03284
9.74	5.02955
9.75	5.03745
9.76	5.03679
9.77	5.03416
9.78	5.02495
9.79	5.03087
9.8	5.03449
9.81	5.02297
9.82	5.02758
9.83	5.021
9.84	5.02593
9.85	5.02593
9.86	5.02067
9.87	5.0256
9.88	5.01179
9.89	5.01639
9.9	5.03153
9.91	5.02889
9.92	5.02001
9.93	5.01672
9.94	5.01606
9.95	5.0256
9.96	5.01278
9.97	5.01771
9.98	5.01475
9.99	5.02067
10	5.021
10.01	5.01574
10.02	5.02067
10.03	5.00949
10.04	5.01014
10.05	4.99797
10.06	5.00685
10.07	5.00258
10.08	5.01935
10.09	5.0062
10.1	5.00488
10.11	5.01146
10.12	5.00159
10.13	5.00784
10.14	4.99896
10.15	5.00916
10.16	4.9983
10.17	4.98021
10.18	4.98547
10.19	4.99995
10.2	4.99435
10.21	4.99764
10.22	4.98942
10.23	4.98547
10.24	4.97626
10.25	4.99139
10.26	5.00159
10.27	4.99271
10.28	4.99633
10.29	4.99402
10.3	4.98481
10.31	4.98909
10.32	4.98152
10.33	4.97034
10.34	4.98021
10.35	4.9835
10.36	4.98054
10.37	4.97593
10.38	4.97429
10.39	4.98284
10.4	4.97166
10.41	4.97626
10.42	4.97034
10.43	4.97396
10.44	4.97988
10.45	4.97429
10.46	4.97495
10.47	4.98416
10.48	4.96705
10.49	4.97659
10.5	4.96705
10.51	4.97363
10.52	4.97198
10.53	4.96277
10.54	4.96212
10.55	4.96968
10.56	4.96837
10.57	4.9631
10.58	4.97034
10.59	4.95192
10.6	4.95192
10.61	4.97363
10.62	4.96639
10.63	4.95619
10.64	4.96508
10.65	4.95389
10.66	4.95817
10.67	4.95981
10.68	4.94929
10.69	4.94962
10.7	4.95422
10.71	4.95488
10.72	4.94567
10.73	4.95027
10.74	4.9483
10.75	4.93317
10.76	4.94863
10.77	4.94008
10.78	4.946
10.79	4.95389
10.8	4.95685
10.81	4.95817
10.82	4.94501
10.83	4.93777
10.84	4.94271
10.85	4.93185
10.86	4.9335
10.87	4.94008
10.88	4.93975
10.89	4.94304
10.9	4.93383
10.91	4.93547
10.92	4.94698
10.93	4.93975
10.94	4.9335
10.95	4.92133
10.96	4.94567
10.97	4.93679
10.98	4.92955
10.99	4.92823
11	4.93119
11.01	4.92889
11.02	4.93547
11.03	4.92396
11.04	4.93087
11.05	4.9256
11.06	4.92034
11.07	4.92133
11.08	4.93152
11.09	4.93251
11.1	4.9335
11.11	4.92067
11.12	4.91738
11.13	4.93152
11.14	4.92758
11.15	4.93021
11.16	4.92988
11.17	4.91672
11.18	4.91409
11.19	4.92429
11.2	4.92067
11.21	4.93218
11.22	4.92527
11.23	4.90718
11.24	4.92198
11.25	4.91508
11.26	4.91639
11.27	4.92856
11.28	4.92725
11.29	4.93284
11.3	4.90882
11.31	4.92264
11.32	4.92363
11.33	4.92133
11.34	4.90948
11.35	4.9085
11.36	4.92692
11.37	4.91409
11.38	4.91179
11.39	4.90915
11.4	4.91639
11.41	4.9154
11.42	4.91573
11.43	4.92231
11.44	4.91705
11.45	4.90192
11.46	4.90948
11.47	4.91343
11.48	4.91672
11.49	4.90422
11.5	4.90159
11.51	4.90981
11.52	4.90981
11.53	4.89863
11.54	4.89665
11.55	4.90948
11.56	4.90882
11.57	4.9233
11.58	4.90225
11.59	4.89698
11.6	4.90685
11.61	4.91442
11.62	4.89929
11.63	4.90389
11.64	4.89665
11.65	4.89534
11.66	4.90389
11.67	4.89139
11.68	4.89994
11.69	4.89501
11.7	4.88053
11.71	4.88613
11.72	4.89863
11.73	4.89303
11.74	4.89632
11.75	4.88744
11.76	4.89007
11.77	4.88975
11.78	4.89994
11.79	4.87889
11.8	4.8779
11.81	4.8881
11.82	4.89073
11.83	4.88843
11.84	4.89073
11.85	4.88481
11.86	4.87659
11.87	4.87889
11.88	4.87692
11.89	4.88152
11.9	4.88152
11.91	4.88021
11.92	4.87363
11.93	4.86836
11.94	4.8881
11.95	4.88711
11.96	4.87856
11.97	4.88053
11.98	4.88514
11.99	4.88646
12	4.88284
12.01	4.88185
12.02	4.88119
12.03	4.8631
12.04	4.86606
12.05	4.86474
12.06	4.87396
12.07	4.88909
12.08	4.88415
12.09	4.88678
12.1	4.87231
12.11	4.88086
12.12	4.88152
12.13	4.86902
12.14	4.85915
12.15	4.86244
12.16	4.87001
12.17	4.87692
12.18	4.88152
12.19	4.87593
12.2	4.87494
12.21	4.87757
12.22	4.87593
12.23	4.87494
12.24	4.87001
12.25	4.87626
12.26	4.88053
12.27	4.86738
12.28	4.8733
12.29	4.87264
12.3	4.86803
12.31	4.86902
12.32	4.86672
12.33	4.87198
12.34	4.8631
12.35	4.87264
12.36	4.87297
12.37	4.85915
12.38	4.86211
12.39	4.86705
12.4	4.8631
12.41	4.85948
12.42	4.86639
12.43	4.85652
12.44	4.84698
12.45	4.85817
12.46	4.86178
12.47	4.85257
12.48	4.86573
12.49	4.86376
12.5	4.84665
12.51	4.86178
12.52	4.86343
12.53	4.85751
12.54	4.85422
12.55	4.86211
12.56	4.84534
12.57	4.8631
12.58	4.84698
12.59	4.85224
12.6	4.84205
12.61	4.85981
12.62	4.8552
12.63	4.85422
12.64	4.8529
12.65	4.85356
12.66	4.86573
12.67	4.86277
12.68	4.85027
12.69	4.85553
12.7	4.85224
12.71	4.85192
12.72	4.8483
12.73	4.84731
12.74	4.84961
12.75	4.85323
12.76	4.84238
12.77	4.85257
12.78	4.84205
12.79	4.84501
12.8	4.85488
12.81	4.84106
12.82	4.83053
12.83	4.85126
12.84	4.85027
12.85	4.85027
12.86	4.84731
12.87	4.84073
12.88	4.83481
12.89	4.83711
12.9	4.84172
12.91	4.84731
12.92	4.8404
12.93	4.83941
12.94	4.83711
12.95	4.83645
12.96	4.83547
12.97	4.83448
12.98	4.82922
12.99	4.84402
13	4.83678
13.01	4.83514
13.02	4.82889
13.03	4.83974
13.04	4.8404
13.05	4.82823
13.06	4.8404
13.07	4.84205
13.08	4.8279
13.09	4.84106
13.1	4.83152
13.11	4.83119
13.12	4.8279
13.13	4.8381
13.14	4.82395
13.15	4.83086
13.16	4.83843
13.17	4.83185
13.18	4.83547
13.19	4.82889
13.2	4.82494
13.21	4.82626
13.22	4.83974
13.23	4.83382
13.24	4.84106
13.25	4.83349
13.26	4.82231
13.27	4.82395
13.28	4.82823
13.29	4.84205
13.3	4.83316
13.31	4.83152
13.32	4.8302
13.33	4.83152
13.34	4.81902
13.35	4.82066
13.36	4.82823
13.37	4.82494
13.38	4.82691
13.39	4.82099
13.4	4.81573
13.41	4.82527
13.42	4.82231
13.43	4.81935
13.44	4.82198
13.45	4.82066
13.46	4.81935
13.47	4.82264
13.48	4.81803
13.49	4.8233
13.5	4.82494
13.51	4.82264
13.52	4.82362
13.53	4.80553
13.54	4.81244
13.55	4.82757
13.56	4.80257
13.57	4.82034
13.58	4.81474
13.59	4.82362
13.6	4.82165
13.61	4.81836
13.62	4.81968
13.63	4.80849
13.64	4.80652
13.65	4.81573
13.66	4.82132
13.67	4.80718
13.68	4.80981
13.69	4.80586
13.7	4.81441
13.71	4.82001
13.72	4.81178
13.73	4.8052
