"BIO-KINE ASCII FILE"
"_COMMENT"	"MOS-500 Spectrometer"
"_COMMENT"	"Kinetics measurement"
"_COMMENT"	"Y Unit : Volt,  X Unit : s"
"_COMMENT"	"Excitation wavelength : 380 nm"
"_COMMENT"	"Fentes bandwidth =  1 nm"
"_COMMENT"	"HV= 1000V"
"_COMMENT"	"Timebase  1 =  .01 s   5001 pts"
"_SFM"	"SFM-400 /S  Advanced mode"
"_SFM"	"Ratio : S1: 2.5, S2: 0, S3: 0, S4: 1"
"_SFM"	"Content : S1: , S2: , S3: , S4:"
"_SFM"	"Concentration : S1: , S2: , S3: , S4:"
"_SFM"	"Total volume : 209 µl  Flow : 3.5 mL/s"
"_SFM"	"Acquisition start :  10 ms before stop"
"_SFM"	"cuve=FC-15, s1=10 ml , s2=10 ml , s3=10 ml , s4=1.9 ml"
"_UNITX"	"s"
"_UNITY"	"Volt"
"_DELTAX"	0
"_DATA"
1e-300	8.2576
0.01	8.43622
0.02	8.66452
0.03	8.77406
0.04	8.80959
0.05	8.87176
0.06	8.93031
0.07	8.94248
0.08	8.95597
0.09	8.95696
0.1	8.95169
0.11	8.97439
0.12	8.96452
0.13	8.98262
0.14	8.94643
0.15	9.01025
0.16	8.99841
0.17	8.96419
0.18	8.96419
0.19	8.9961
0.2	8.96551
0.21	8.96156
0.22	9.00104
0.23	8.93985
0.24	8.979
0.25	9.0313
0.26	8.94873
0.27	8.9915
0.28	9.02505
0.29	8.9461
0.3	8.94775
0.31	8.93261
0.32	8.97044
0.33	8.93064
0.34	8.92834
0.35	8.94544
0.36	8.97801
0.37	8.98656
0.38	8.9734
0.39	8.93854
0.4	8.90432
0.41	8.95696
0.42	8.88557
0.43	8.88623
0.44	8.91748
0.45	8.91715
0.46	8.91518
0.47	8.96419
0.48	8.85827
0.49	8.8961
0.5	8.92768
0.51	8.87571
0.52	8.90696
0.53	8.86057
0.54	8.88196
0.55	8.84215
0.56	8.87801
0.57	8.94347
0.58	8.87077
0.59	8.87307
0.6	8.84149
0.61	8.86288
0.62	8.88985
0.63	8.82439
0.64	8.75498
0.65	8.8711
0.66	8.81781
0.67	8.8234
0.68	8.7586
0.69	8.80498
0.7	8.74774
0.71	8.82439
0.72	8.83524
0.73	8.79182
0.74	8.78722
0.75	8.77669
0.76	8.80498
0.77	8.80465
0.78	8.79478
0.79	8.73952
0.8	8.74511
0.81	8.7813
0.82	8.78853
0.83	8.77768
0.84	8.74018
0.85	8.71616
0.86	8.78261
0.87	8.75893
0.88	8.72735
0.89	8.73228
0.9	8.77998
0.91	8.76287
0.92	8.74445
0.93	8.71682
0.94	8.73754
0.95	8.76682
0.96	8.72208
0.97	8.73787
0.98	8.68853
0.99	8.71682
1	8.70662
1.01	8.69873
1.02	8.7234
1.03	8.71715
1.04	8.69083
1.05	8.6336
1.06	8.66517
1.07	8.64873
1.08	8.66057
1.09	8.66814
1.1	8.62208
1.11	8.66057
1.12	8.65498
1.13	8.63623
1.14	8.66485
1.15	8.63162
1.16	8.64083
1.17	8.67241
1.18	8.62833
1.19	8.6382
1.2	8.65169
1.21	8.68228
1.22	8.65958
1.23	8.65037
1.24	8.57998
1.25	8.5734
1.26	8.62109
1.27	8.61254
1.28	8.61287
1.29	8.59017
1.3	8.64445
1.31	8.61517
1.32	8.57833
1.33	8.5803
1.34	8.51912
1.35	8.60695
1.36	8.57109
1.37	8.55662
1.38	8.58919
1.39	8.58919
1.4	8.59675
1.41	8.54872
1.42	8.52932
1.43	8.54313
1.44	8.55761
1.45	8.52932
1.46	8.52076
1.47	8.54938
1.48	8.54247
1.49	8.53524
1.5	8.56912
1.51	8.51221
1.52	8.57504
1.53	8.57734
1.54	8.55695
1.55	8.51879
1.56	8.51879
1.57	8.50662
1.58	8.52438
1.59	8.5632
1.6	8.5109
1.61	8.50136
1.62	8.45399
1.63	8.47405
1.64	8.4326
1.65	8.52537
1.66	8.49149
1.67	8.44708
1.68	8.5109
1.69	8.51517
1.7	8.49839
1.71	8.46517
1.72	8.43063
1.73	8.47307
1.74	8.47603
1.75	8.44806
1.76	8.41583
1.77	8.4326
1.78	8.41155
1.79	8.41945
1.8	8.42602
1.81	8.42931
1.82	8.43392
1.83	8.41517
1.84	8.47603
1.85	8.41418
1.86	8.38227
1.87	8.41912
1.88	8.43063
1.89	8.42076
1.9	8.38951
1.91	8.41122
1.92	8.38425
1.93	8.37569
1.94	8.39708
1.95	8.36188
1.96	8.37964
1.97	8.353
1.98	8.38491
1.99	8.36188
2	8.34773
2.01	8.34938
2.02	8.30694
2.03	8.38589
2.04	8.37405
2.05	8.3349
2.06	8.3882
2.07	8.36517
2.08	8.36023
2.09	8.32372
2.1	8.26846
2.11	8.38129
2.12	8.32471
2.13	8.36319
2.14	8.38655
2.15	8.34905
2.16	8.29313
2.17	8.38194
2.18	8.35004
2.19	8.30004
2.2	8.29477
2.21	8.3099
2.22	8.3076
2.23	8.278
2.24	8.30629
2.25	8.28918
2.26	8.28392
2.27	8.30629
2.28	8.24214
2.29	8.278
2.3	8.32306
2.31	8.29313
2.32	8.30332
2.33	8.28293
2.34	8.26878
2.35	8.25036
2.36	8.26122
2.37	8.28721
2.38	8.27865
2.39	8.25036
2.4	8.26418
2.41	8.27043
2.42	8.21023
2.43	8.24576
2.44	8.26352
2.45	8.28392
2.46	8.22109
2.47	8.19905
2.48	8.20957
2.49	8.23227
2.5	8.2122
2.51	8.22898
2.52	8.1622
2.53	8.14214
2.54	8.21582
2.55	8.17964
2.56	8.12635
2.57	8.20628
2.58	8.18622
2.59	8.16944
2.6	8.17174
2.61	8.18655
2.62	8.22174
2.63	8.17832
2.64	8.13983
2.65	8.12404
2.66	8.16845
2.67	8.15233
2.68	8.22668
2.69	8.14016
2.7	8.08325
2.71	8.11648
2.72	8.20859
2.73	8.20431
2.74	8.18589
2.75	8.10858
2.76	8.14937
2.77	8.15924
2.78	8.09674
2.79	8.11747
2.8	8.13589
2.81	8.0872
2.82	8.12635
2.83	8.08292
2.84	8.13326
2.85	8.17076
2.86	8.08885
2.87	8.11154
2.88	8.12931
2.89	8.09904
2.9	8.11385
2.91	8.07404
2.92	8.07042
2.93	8.08128
2.94	8.052
2.95	8.1247
2.96	8.05957
2.97	8.06746
2.98	8.07141
2.99	8.0974
3	8.05431
3.01	8.08918
3.02	8.1122
3.03	8.10036
3.04	8.08556
3.05	8.07141
3.06	8.08128
3.07	8.07832
3.08	8.02371
3.09	8.03128
3.1	8.08556
3.11	8.04115
3.12	7.97174
3.13	8.0372
3.14	8.01121
3.15	8.02733
3.16	8.01417
3.17	7.96746
3.18	8.00694
3.19	8.08095
3.2	8.06121
3.21	8.05727
3.22	8.02009
3.23	7.95825
3.24	8.02371
3.25	7.99246
3.26	7.95496
3.27	7.99246
3.28	8.01582
3.29	7.98555
3.3	7.96615
3.31	8.04115
3.32	8.05332
3.33	8.04016
3.34	7.99773
3.35	7.94575
3.36	7.95595
3.37	8.00628
3.38	7.97963
3.39	7.9668
3.4	7.92733
3.41	7.94345
3.42	7.95759
3.43	7.95825
3.44	7.98687
3.45	8.00924
3.46	8.002
3.47	7.90628
3.48	7.93292
3.49	8.002
3.5	7.92634
3.51	7.92272
3.52	7.95957
3.53	7.86516
3.54	7.91878
3.55	7.88259
3.56	7.92404
3.57	7.93391
3.58	7.91121
3.59	7.8793
3.6	7.86746
3.61	7.82173
3.62	7.88424
3.63	7.86417
3.64	7.90562
3.65	7.86516
3.66	7.80693
3.67	7.82963
3.68	7.89443
3.69	7.91878
3.7	7.88128
3.71	7.85035
3.72	7.89147
3.73	7.88687
3.74	7.86417
3.75	7.77996
3.76	7.81417
3.77	7.88456
3.78	7.8316
3.79	7.8395
3.8	7.85068
3.81	7.87766
3.82	7.88095
3.83	7.88489
3.84	7.92536
3.85	7.86746
3.86	7.81877
3.87	7.84674
3.88	7.82667
3.89	7.85364
3.9	7.80529
3.91	7.84575
3.92	7.85595
3.93	7.84213
3.94	7.76483
3.95	7.7464
3.96	7.76154
3.97	7.8247
3.98	7.86318
3.99	7.81976
4	7.80134
4.01	7.78917
4.02	7.8441
4.03	7.80792
4.04	7.81318
4.05	7.77996
4.06	7.7316
4.07	7.78094
4.08	7.81713
4.09	7.79739
4.1	7.81976
4.11	7.802
4.12	7.76515
4.13	7.75858
4.14	7.7645
4.15	7.80529
4.16	7.74377
4.17	7.78522
4.18	7.7191
4.19	7.76417
4.2	7.81384
4.21	7.78423
4.22	7.77436
4.23	7.77765
4.24	7.76022
4.25	7.73851
4.26	7.73292
4.27	7.75298
4.28	7.75101
4.29	7.78588
4.3	7.76417
4.31	7.75035
4.32	7.76088
4.33	7.76022
4.34	7.70167
4.35	7.69443
4.36	7.69213
4.37	7.72272
4.38	7.7418
4.39	7.69838
4.4	7.72107
4.41	7.71844
4.42	7.74871
4.43	7.72798
4.44	7.69311
4.45	7.72502
4.46	7.68818
4.47	7.68292
4.48	7.63522
4.49	7.65561
4.5	7.6737
4.51	7.65495
4.52	7.71351
4.53	7.65627
4.54	7.68719
4.55	7.67042
4.56	7.6487
4.57	7.62765
4.58	7.65791
4.59	7.67535
4.6	7.65726
4.61	7.66384
4.62	7.58982
4.63	7.60495
4.64	7.6237
4.65	7.64838
4.66	7.6293
4.67	7.63028
4.68	7.60726
4.69	7.61976
4.7	7.65331
4.71	7.70496
4.72	7.64805
4.73	7.64245
4.74	7.61745
4.75	7.67173
4.76	7.65232
4.77	7.65331
4.78	7.62074
4.79	7.60693
4.8	7.64048
4.81	7.63587
4.82	7.59772
4.83	7.61285
4.84	7.61482
4.85	7.62831
4.86	7.63193
4.87	7.59311
4.88	7.57107
4.89	7.59179
4.9	7.62699
4.91	7.60627
4.92	7.57535
4.93	7.57929
4.94	7.58752
4.95	7.59574
4.96	7.63291
4.97	7.62666
4.98	7.61383
4.99	7.58719
5	7.56778
5.01	7.59443
5.02	7.56219
5.03	7.55265
5.04	7.49048
5.05	7.54048
5.06	7.53028
5.07	7.51317
5.08	7.54212
5.09	7.5816
5.1	7.56285
5.11	7.53423
5.12	7.54278
5.13	7.49706
5.14	7.51679
5.15	7.52962
5.16	7.52732
5.17	7.53489
5.18	7.56548
5.19	7.55758
5.2	7.51811
5.21	7.54771
5.22	7.51844
5.23	7.53719
5.24	7.51482
5.25	7.51219
5.26	7.50331
5.27	7.54508
5.28	7.50692
5.29	7.50265
5.3	7.50725
5.31	7.49771
5.32	7.51581
5.33	7.50199
5.34	7.53357
5.35	7.47304
5.36	7.52206
5.37	7.53357
5.38	7.49344
5.39	7.45166
5.4	7.50002
5.41	7.46745
5.42	7.42896
5.43	7.47699
5.44	7.54081
5.45	7.46284
5.46	7.45363
5.47	7.47699
5.48	7.54607
5.49	7.46646
5.5	7.39179
5.51	7.45955
5.52	7.49607
5.53	7.48192
5.54	7.47205
5.55	7.43949
5.56	7.4783
5.57	7.45824
5.58	7.40922
5.59	7.43916
5.6	7.48127
5.61	7.43324
5.62	7.44179
5.63	7.44048
5.64	7.43949
5.65	7.40265
5.66	7.40561
5.67	7.34245
5.68	7.40166
5.69	7.41054
5.7	7.39508
5.71	7.37304
5.72	7.41251
5.73	7.45396
5.74	7.41844
5.75	7.41186
5.76	7.39705
5.77	7.39014
5.78	7.42271
5.79	7.44936
5.8	7.43258
5.81	7.40462
5.82	7.39804
5.83	7.40232
5.84	7.44508
5.85	7.45232
5.86	7.41087
5.87	7.43126
5.88	7.46252
5.89	7.37764
5.9	7.41876
5.91	7.42732
5.92	7.46186
5.93	7.4214
5.94	7.40955
5.95	7.40857
5.96	7.37863
5.97	7.3987
5.98	7.39409
5.99	7.3135
6	7.40495
6.01	7.38192
6.02	7.36942
6.03	7.35396
6.04	7.3612
6.05	7.36876
6.06	7.34639
6.07	7.32139
6.08	7.32929
6.09	7.39343
6.1	7.3908
6.11	7.36317
6.12	7.36251
6.13	7.28981
6.14	7.37271
6.15	7.34935
6.16	7.27764
6.17	7.28554
6.18	7.3112
6.19	7.34508
6.2	7.35692
6.21	7.34508
6.22	7.3181
6.23	7.32304
6.24	7.35231
6.25	7.35067
6.26	7.33093
6.27	7.33488
6.28	7.39903
6.29	7.31251
6.3	7.3556
6.31	7.32139
6.32	7.34212
6.33	7.4385
6.34	7.31317
6.35	7.28652
6.36	7.25955
6.37	7.26744
6.38	7.33455
6.39	7.31251
6.4	7.3033
6.41	7.37501
6.42	7.33653
6.43	7.29804
6.44	7.33488
6.45	7.31284
6.46	7.35001
6.47	7.29541
6.48	7.30856
6.49	7.33389
6.5	7.31152
6.51	7.30823
6.52	7.3181
6.53	7.29837
6.54	7.31942
6.55	7.32205
6.56	7.32501
6.57	7.34409
6.58	7.30856
6.59	7.30823
6.6	7.3135
6.61	7.28422
6.62	7.28521
6.63	7.23817
6.64	7.251
6.65	7.26646
6.66	7.226
6.67	7.26777
6.68	7.30034
6.69	7.25692
6.7	7.25889
6.71	7.28356
6.72	7.25889
6.73	7.26481
6.74	7.23455
6.75	7.21942
6.76	7.23652
6.77	7.27567
6.78	7.29343
6.79	7.29902
6.8	7.26547
6.81	7.28521
6.82	7.25165
6.83	7.26119
6.84	7.25758
6.85	7.2806
6.86	7.27073
6.87	7.27929
6.88	7.27139
6.89	7.23915
6.9	7.276
6.91	7.23817
6.92	7.19771
6.93	7.25659
6.94	7.251
6.95	7.22468
6.96	7.18915
6.97	7.19047
6.98	7.23126
6.99	7.23784
7	7.20823
7.01	7.21086
7.02	7.18422
7.03	7.23554
7.04	7.20757
7.05	7.13455
7.06	7.16251
7.07	7.22731
7.08	7.19705
7.09	7.21876
7.1	7.18488
7.11	7.16086
7.12	7.23751
7.13	7.21317
7.14	7.22073
7.15	7.21679
7.16	7.21448
7.17	7.19507
7.18	7.18389
7.19	7.18455
7.2	7.17205
7.21	7.23389
7.22	7.20264
7.23	7.21382
7.24	7.2204
7.25	7.22073
7.26	7.19113
7.27	7.2079
7.28	7.1579
7.29	7.18751
7.3	7.2408
7.31	7.19211
7.32	7.16678
7.33	7.22468
7.34	7.16711
7.35	7.14606
7.36	7.18915
7.37	7.17172
7.38	7.17896
7.39	7.20593
7.4	7.20692
7.41	7.16974
7.42	7.16514
7.43	7.13652
7.44	7.15395
7.45	7.18817
7.46	7.15099
7.47	7.13126
7.48	7.23619
7.49	7.19935
7.5	7.17238
7.51	7.1908
7.52	7.12797
7.53	7.13948
7.54	7.11711
7.55	7.17863
7.56	7.18882
7.57	7.17994
7.58	7.17764
7.59	7.16744
7.6	7.15889
7.61	7.17238
7.62	7.14902
7.63	7.17764
7.64	7.17632
7.65	7.15659
7.66	7.1908
7.67	7.1602
7.68	7.12303
7.69	7.12895
7.7	7.11251
7.71	7.14639
7.72	7.11448
7.73	7.14047
7.74	7.19047
7.75	7.13619
7.76	7.14113
7.77	7.10823
7.78	7.17139
7.79	7.1352
7.8	7.12994
7.81	7.10987
7.82	7.12665
7.83	7.12797
7.84	7.12237
7.85	7.08849
7.86	7.0954
7.87	7.16152
7.88	7.11909
7.89	7.13553
7.9	7.13685
7.91	7.11218
7.92	7.10165
7.93	7.08126
7.94	7.10264
7.95	7.06119
7.96	7.08751
7.97	7.08849
7.98	7.06415
7.99	7.10001
8	7.05757
8.01	7.06547
8.02	7.08191
8.03	6.9852
8.04	7.06382
8.05	7.12336
8.06	7.05362
8.07	7.04277
8.08	7.04079
8.09	7.05823
8.1	7.09047
8.11	7.10165
8.12	7.06612
8.13	7.0477
8.14	7.0727
8.15	7.08422
8.16	7.08948
8.17	7.12172
8.18	7.08224
8.19	7.09869
8.2	7.14705
8.21	7.0727
8.22	7.07533
8.23	7.09672
8.24	7.06316
8.25	7.05593
8.26	7.05856
8.27	7.04902
8.28	7.07172
8.29	7.0704
8.3	7.04704
8.31	7.02698
8.32	7.0477
8.33	7.06843
8.34	7.0306
8.35	7.01514
8.36	7.07435
8.37	7.04474
8.38	7.02895
8.39	7.05165
8.4	7.05658
8.41	7.03389
8.42	7.00395
8.43	7.05033
8.44	7.02665
8.45	7.07007
8.46	7.06448
8.47	7.01744
8.48	6.98981
8.49	7.0352
8.5	7.00823
8.51	7.02698
8.52	7.02073
8.53	7.0125
8.54	6.99902
8.55	7.01152
8.56	7.00132
8.57	7.03454
8.58	7.04507
8.59	7.02007
8.6	7.0306
8.61	7.04935
8.62	7.0125
8.63	6.9523
8.64	6.98356
8.65	7.04112
8.66	7.01744
8.67	7.01316
8.68	7.0477
8.69	7.02402
8.7	7.03816
8.71	7.04441
8.72	6.99408
8.73	6.98224
8.74	6.97073
8.75	6.97303
8.76	7.00066
8.77	7.025
8.78	6.99967
8.79	6.96744
8.8	6.96711
8.81	6.99638
8.82	6.99902
8.83	7.00198
8.84	6.96809
8.85	7.01875
8.86	7.01579
8.87	6.99178
8.88	7.02961
8.89	6.99474
8.9	6.99277
8.91	6.9931
8.92	7.01514
8.93	6.99507
8.94	6.99079
8.95	7.02698
8.96	7.0102
8.97	6.9477
8.98	6.96053
8.99	7.04112
9	6.97007
9.01	6.95954
9.02	6.97928
9.03	6.97829
9.04	6.9398
9.05	7.01711
9.06	6.97073
9.07	6.93783
9.08	6.96349
9.09	7.00889
9.1	7.02533
9.11	6.99342
9.12	6.97237
9.13	6.94013
9.14	6.99013
9.15	6.96349
9.16	6.95198
9.17	6.93717
9.18	6.97928
9.19	6.99013
9.2	6.93026
9.21	6.9648
9.22	6.98948
9.23	7.00592
9.24	6.9125
9.25	6.91283
9.26	6.94211
9.27	6.96119
9.28	6.94441
9.29	6.91842
9.3	6.89507
9.31	6.89605
9.32	6.91119
9.33	6.95132
9.34	6.94803
9.35	6.92303
9.36	6.91382
9.37	6.9204
9.38	6.91513
9.39	6.91151
9.4	6.92697
9.41	6.92369
9.42	6.92829
9.43	6.89243
9.44	6.96448
9.45	6.9454
9.46	6.91184
9.47	6.91217
9.48	6.86513
9.49	6.98421
9.5	6.97862
9.51	6.92105
9.52	6.86908
9.53	6.925
9.54	6.92994
9.55	6.93257
9.56	6.95494
9.57	6.90855
9.58	6.94441
9.59	6.9102
9.6	6.93915
9.61	6.95494
9.62	6.89112
9.63	6.95559
9.64	6.92796
9.65	6.95033
9.66	6.89836
9.67	6.89243
9.68	6.92665
9.69	6.95757
9.7	6.93553
9.71	6.95855
9.72	6.90822
9.73	6.91546
9.74	6.94638
9.75	6.91349
9.76	6.89441
9.77	6.89836
9.78	6.97862
9.79	6.92105
9.8	6.87039
9.81	6.90099
9.82	6.95987
9.83	6.93849
9.84	6.8977
9.85	6.89112
9.86	6.78322
9.87	6.85033
9.88	6.89836
9.89	6.87664
9.9	6.88026
9.91	6.89572
9.92	6.89934
9.93	6.89046
9.94	6.86217
9.95	6.85855
9.96	6.8648
9.97	6.86612
9.98	6.94013
9.99	6.87105
10	6.85724
10.01	6.87862
10.02	6.86645
10.03	6.86414
10.04	6.88586
10.05	6.93717
10.06	6.85526
10.07	6.8852
10.08	6.89704
10.09	6.89474
10.1	6.89507
10.11	6.83059
10.12	6.89079
10.13	6.84342
10.14	6.89868
10.15	6.91744
10.16	6.89342
10.17	6.81283
10.18	6.76842
10.19	6.86809
10.2	6.86283
10.21	6.86546
10.22	6.83849
10.23	6.83191
10.24	6.82533
10.25	6.88487
10.26	6.86743
10.27	6.85099
10.28	6.83618
10.29	6.84671
10.3	6.83717
10.31	6.85757
10.32	6.86053
10.33	6.81085
10.34	6.82434
10.35	6.79802
10.36	6.85099
10.37	6.83684
10.38	6.82599
10.39	6.81513
10.4	6.82302
10.41	6.79901
10.42	6.83684
10.43	6.84868
10.44	6.85066
10.45	6.78881
10.46	6.85066
10.47	6.83158
10.48	6.81447
10.49	6.82763
10.5	6.80197
10.51	6.79342
10.52	6.79408
10.53	6.8171
10.54	6.85033
10.55	6.83881
10.56	6.85263
10.57	6.85559
10.58	6.83388
10.59	6.84835
10.6	6.8523
10.61	6.84835
10.62	6.82072
10.63	6.83816
10.64	6.84605
10.65	6.85592
10.66	6.84145
10.67	6.80131
10.68	6.8102
10.69	6.79802
10.7	6.81974
10.71	6.80164
10.72	6.81513
10.73	6.86645
10.74	6.86283
10.75	6.8102
10.76	6.84737
10.77	6.83125
10.78	6.79967
10.79	6.81875
10.8	6.84572
10.81	6.83585
10.82	6.81513
10.83	6.80164
10.84	6.83487
10.85	6.82006
10.86	6.79638
10.87	6.77401
10.88	6.80822
10.89	6.82631
10.9	6.87171
10.91	6.81283
10.92	6.77171
10.93	6.75888
10.94	6.79967
10.95	6.78947
10.96	6.80592
10.97	6.79342
10.98	6.82664
10.99	6.79309
11	6.77138
11.01	6.77862
11.02	6.79671
11.03	6.7796
11.04	6.81809
11.05	6.82664
11.06	6.79539
11.07	6.82631
11.08	6.75789
11.09	6.77862
11.1	6.75559
11.11	6.71809
11.12	6.8
11.13	6.76809
11.14	6.7977
11.15	6.80921
11.16	6.83651
11.17	6.77763
11.18	6.81085
11.19	6.77697
11.2	6.76217
11.21	6.75394
11.22	6.77237
11.23	6.8296
11.24	6.78388
11.25	6.75855
11.26	6.775
11.27	6.81085
11.28	6.7977
11.29	6.81974
11.3	6.79868
11.31	6.82204
11.32	6.77302
11.33	6.74967
11.34	6.76085
11.35	6.80592
11.36	6.7569
11.37	6.77368
11.38	6.80526
11.39	6.76579
11.4	6.7625
11.41	6.78125
11.42	6.75427
11.43	6.7171
11.44	6.77302
11.45	6.80164
11.46	6.77039
11.47	6.73552
11.48	6.73486
11.49	6.78026
11.5	6.80131
11.51	6.77598
11.52	6.79967
11.53	6.80362
11.54	6.7046
11.55	6.7398
11.56	6.75197
11.57	6.79539
11.58	6.78059
11.59	6.78223
11.6	6.75723
11.61	6.79243
11.62	6.73355
11.63	6.76743
11.64	6.76908
11.65	6.74736
11.66	6.80427
11.67	6.78783
11.68	6.75625
11.69	6.75987
11.7	6.74177
11.71	6.74736
11.72	6.74769
11.73	6.79079
11.74	6.80921
11.75	6.80855
11.76	6.80164
11.77	6.75855
11.78	6.72039
11.79	6.75954
11.8	6.75362
11.81	6.74375
11.82	6.78487
11.83	6.75888
11.84	6.70328
11.85	6.72335
11.86	6.76809
11.87	6.76546
11.88	6.76118
11.89	6.76579
11.9	6.74111
11.91	6.73684
11.92	6.72368
11.93	6.71644
11.94	6.77368
11.95	6.73059
11.96	6.73026
11.97	6.73026
11.98	6.75592
11.99	6.76908
12	6.76875
12.01	6.76842
12.02	6.74901
12.03	6.73388
12.04	6.76118
12.05	6.78848
12.06	6.77697
12.07	6.71513
12.08	6.69802
12.09	6.77204
12.1	6.74769
12.11	6.75526
12.12	6.76875
12.13	6.68651
12.14	6.74638
12.15	6.71677
12.16	6.71644
12.17	6.73651
12.18	6.79539
12.19	6.74671
12.2	6.7398
12.21	6.74013
12.22	6.69802
12.23	6.70822
12.24	6.77862
12.25	6.75658
12.26	6.70296
12.27	6.74408
12.28	6.70032
12.29	6.74111
12.3	6.78421
12.31	6.73421
12.32	6.72664
12.33	6.69802
12.34	6.72335
12.35	6.76546
12.36	6.80691
12.37	6.77434
12.38	6.67631
12.39	6.70296
12.4	6.69835
12.41	6.6773
12.42	6.71184
12.43	6.7319
12.44	6.75625
12.45	6.71085
12.46	6.69243
12.47	6.7046
12.48	6.66381
12.49	6.66282
12.5	6.6898
12.51	6.68815
12.52	6.68749
12.53	6.69671
12.54	6.69901
12.55	6.69736
12.56	6.68157
12.57	6.70986
12.58	6.7046
12.59	6.69934
12.6	6.66907
12.61	6.69769
12.62	6.7023
12.63	6.66644
12.64	6.71348
12.65	6.7194
12.66	6.68223
12.67	6.73322
12.68	6.70263
12.69	6.7194
12.7	6.72105
12.71	6.64802
12.72	6.66644
12.73	6.71282
12.74	6.74276
12.75	6.69177
12.76	6.68749
12.77	6.65888
12.78	6.67894
12.79	6.67861
12.8	6.6773
12.81	6.71907
12.82	6.69835
12.83	6.66809
12.84	6.70953
12.85	6.67302
12.86	6.66677
12.87	6.65065
12.88	6.70756
12.89	6.69703
12.9	6.68486
12.91	6.67763
12.92	6.65756
12.93	6.68848
12.94	6.67763
12.95	6.71052
12.96	6.68848
12.97	6.68157
12.98	6.70296
12.99	6.67927
13	6.68059
13.01	6.64013
13.02	6.74243
13.03	6.70888
13.04	6.6444
13.05	6.68289
13.06	6.7125
13.07	6.68421
13.08	6.71644
13.09	6.6398
13.1	6.7023
13.11	6.7444
13.12	6.63387
13.13	6.66118
13.14	6.73125
13.15	6.70197
13.16	6.67894
13.17	6.67138
13.18	6.71809
13.19	6.7148
13.2	6.66052
13.21	6.65986
13.22	6.70032
13.23	6.63322
13.24	6.62105
13.25	6.69144
13.26	6.70921
13.27	6.7069
13.28	6.71217
13.29	6.70493
13.3	6.67828
13.31	6.66644
13.32	6.70526
13.33	6.71546
13.34	6.71282
13.35	6.69835
13.36	6.68618
13.37	6.61348
13.38	6.65986
13.39	6.63585
13.4	6.63815
13.41	6.6569
13.42	6.68355
13.43	6.6819
13.44	6.69078
13.45	6.68355
13.46	6.70032
13.47	6.59901
13.48	6.61677
13.49	6.69703
13.5	6.66184
13.51	6.63716
13.52	6.65098
13.53	6.7023
13.54	6.67697
13.55	6.69177
13.56	6.71875
13.57	6.67335
13.58	6.68486
13.59	6.67894
13.6	6.67236
13.61	6.66809
13.62	6.68651
13.63	6.66381
13.64	6.6342
13.65	6.61809
13.66	6.71842
13.67	6.74079
13.68	6.66611
13.69	6.67631
13.7	6.64078
13.71	6.6273
13.72	6.65394
13.73	6.65953
13.74	6.6592
13.75	6.61019
