"BIO-KINE ASCII FILE"
"_COMMENT"	"MOS-500 Spectrometer"
"_COMMENT"	"Kinetics measurement"
"_COMMENT"	"Y Unit : Volt,  X Unit : s"
"_COMMENT"	"Excitation wavelength : 380 nm"
"_COMMENT"	"Fentes bandwidth =  1 nm"
"_COMMENT"	"HV= 1000V"
"_COMMENT"	"Timebase  1 =  .01 s   3001 pts"
"_SFM"	"SFM-400 /S  Advanced mode"
"_SFM"	"Ratio : S1: 2.5, S2: 0, S3: 0, S4: 1"
"_SFM"	"Content : S1: , S2: , S3: , S4:"
"_SFM"	"Concentration : S1: , S2: , S3: , S4:"
"_SFM"	"Total volume : 209 µl  Flow : 3.5 mL/s"
"_SFM"	"Acquisition start :  10 ms before stop"
"_SFM"	"cuve=FC-15, s1=10 ml , s2=10 ml , s3=10 ml , s4=1.9 ml"
"_UNITX"	"s"
"_UNITY"	"Volt"
"_DELTAX"	0
"_DATA"
1e-300	2.29789
0.01	2.32947
0.02	2.33999
0.03	2.38934
0.04	2.40545
0.05	2.43901
0.06	2.4423
0.07	2.48473
0.08	2.4923
0.09	2.48868
0.1	2.47486
0.11	2.47651
0.12	2.49131
0.13	2.48342
0.14	2.51927
0.15	2.51566
0.16	2.50184
0.17	2.49493
0.18	2.51105
0.19	2.5196
0.2	2.54197
0.21	2.50217
0.22	2.52223
0.23	2.54724
0.24	2.49921
0.25	2.51302
0.26	2.51533
0.27	2.54164
0.28	2.52783
0.29	2.52914
0.3	2.53243
0.31	2.51434
0.32	2.5377
0.33	2.51697
0.34	2.52256
0.35	2.52816
0.36	2.52914
0.37	2.52947
0.38	2.55118
0.39	2.52223
0.4	2.54526
0.41	2.52651
0.42	2.51072
0.43	2.51763
0.44	2.54691
0.45	2.56895
0.46	2.5298
0.47	2.52322
0.48	2.53934
0.49	2.52487
0.5	2.56895
0.51	2.56007
0.52	2.51927
0.53	2.50743
0.54	2.52421
0.55	2.53868
0.56	2.51631
0.57	2.5377
0.58	2.53441
0.59	2.51566
0.6	2.47717
0.61	2.50644
0.62	2.52355
0.63	2.54789
0.64	2.54362
0.65	2.52651
0.66	2.50085
0.67	2.52355
0.68	2.56204
0.69	2.52684
0.7	2.53638
0.71	2.52289
0.72	2.54296
0.73	2.50546
0.74	2.5275
0.75	2.50776
0.76	2.5173
0.77	2.49691
0.78	2.53408
0.79	2.53177
0.8	2.54099
0.81	2.53967
0.82	2.51862
0.83	2.51105
0.84	2.49329
0.85	2.52816
0.86	2.51335
0.87	2.52092
0.88	2.51171
0.89	2.53934
0.9	2.51335
0.91	2.52421
0.92	2.49098
0.93	2.50283
0.94	2.51829
0.95	2.51533
0.96	2.48309
0.97	2.51533
0.98	2.53375
0.99	2.52454
1	2.51533
1.01	2.53375
1.02	2.52322
1.03	2.54691
1.04	2.53638
1.05	2.52355
1.06	2.55678
1.07	2.52256
1.08	2.50941
1.09	2.51796
1.1	2.50612
1.11	2.53901
1.12	2.50348
1.13	2.52454
1.14	2.52059
1.15	2.52421
1.16	2.50151
1.17	2.51006
1.18	2.54526
1.19	2.56072
1.2	2.55414
1.21	2.53671
1.22	2.5377
1.23	2.54131
1.24	2.51072
1.25	2.53572
1.26	2.50743
1.27	2.50381
1.28	2.51171
1.29	2.50644
1.3	2.51566
1.31	2.52289
1.32	2.5298
1.33	2.53572
1.34	2.5173
1.35	2.49559
1.36	2.5298
1.37	2.49954
1.38	2.52585
1.39	2.52092
1.4	2.53079
1.41	2.52059
1.42	2.52552
1.43	2.53572
1.44	2.55447
1.45	2.5173
1.46	2.51368
1.47	2.53079
1.48	2.53539
1.49	2.52618
1.5	2.5252
1.51	2.55053
1.52	2.49888
1.53	2.52026
1.54	2.50151
1.55	2.51895
1.56	2.50579
1.57	2.52355
1.58	2.52026
1.59	2.51829
1.6	2.52421
1.61	2.53276
1.62	2.4844
1.63	2.53441
1.64	2.54658
1.65	2.53013
1.66	2.52454
1.67	2.51862
1.68	2.57092
1.69	2.53638
1.7	2.54329
1.71	2.52487
1.72	2.52256
1.73	2.50316
1.74	2.5025
1.75	2.49987
1.76	2.52717
1.77	2.50118
1.78	2.52092
1.79	2.5673
1.8	2.53802
1.81	2.53145
1.82	2.54164
1.83	2.51204
1.84	2.50118
1.85	2.55085
1.86	2.50941
1.87	2.48967
1.88	2.49362
1.89	2.5298
1.9	2.53079
1.91	2.51467
1.92	2.49691
1.93	2.54921
1.94	2.50513
1.95	2.52223
1.96	2.50184
1.97	2.52355
1.98	2.49394
1.99	2.50447
2	2.49691
2.01	2.51993
2.02	2.52914
2.03	2.50875
2.04	2.5025
2.05	2.52125
2.06	2.54493
2.07	2.50579
2.08	2.49888
2.09	2.52223
2.1	2.53276
2.11	2.49296
2.12	2.52223
2.13	2.54691
2.14	2.54526
2.15	2.52092
2.16	2.49691
2.17	2.51434
2.18	2.50908
2.19	2.51829
2.2	2.52487
2.21	2.51697
2.22	2.48802
2.23	2.50283
2.24	2.50743
2.25	2.54164
2.26	2.53309
2.27	2.53342
2.28	2.4844
2.29	2.50381
2.3	2.49691
2.31	2.51927
2.32	2.53177
2.33	2.50316
2.34	2.51664
2.35	2.5252
2.36	2.50579
2.37	2.51533
2.38	2.49131
2.39	2.53441
2.4	2.52322
2.41	2.50447
2.42	2.53177
2.43	2.49822
2.44	2.50809
2.45	2.53342
2.46	2.51171
2.47	2.55941
2.48	2.50875
2.49	2.47815
2.5	2.53375
2.51	2.51368
2.52	2.50809
2.53	2.54888
2.54	2.51862
2.55	2.50941
2.56	2.51598
2.57	2.51796
2.58	2.48934
2.59	2.5071
2.6	2.50019
2.61	2.48704
2.62	2.51204
2.63	2.48967
2.64	2.50677
2.65	2.47881
2.66	2.48046
2.67	2.4844
2.68	2.50447
2.69	2.50184
2.7	2.50743
2.71	2.52552
2.72	2.51862
2.73	2.52816
2.74	2.50612
2.75	2.49756
2.76	2.50184
2.77	2.52684
2.78	2.52026
2.79	2.50151
2.8	2.53506
2.81	2.50776
2.82	2.51368
2.83	2.51467
2.84	2.50447
2.85	2.49065
2.86	2.52651
2.87	2.52947
2.88	2.4946
2.89	2.52816
2.9	2.50776
2.91	2.5423
2.92	2.51993
2.93	2.52289
2.94	2.48901
2.95	2.51533
2.96	2.51171
2.97	2.52684
2.98	2.50151
2.99	2.49427
3	2.50546
3.01	2.51434
3.02	2.51829
3.03	2.50052
3.04	2.51829
3.05	2.52256
3.06	2.52421
3.07	2.53474
3.08	2.52026
3.09	2.50579
3.1	2.49329
3.11	2.5377
3.12	2.52289
3.13	2.51664
3.14	2.49427
3.15	2.49
3.16	2.48671
3.17	2.50809
3.18	2.52191
3.19	2.54066
3.2	2.54658
3.21	2.51368
3.22	2.50743
3.23	2.50019
3.24	2.53342
3.25	2.51467
3.26	2.52783
3.27	2.51072
3.28	2.50316
3.29	2.47552
3.3	2.52322
3.31	2.50546
3.32	2.52914
3.33	2.53243
3.34	2.5252
3.35	2.53474
3.36	2.51697
3.37	2.51237
3.38	2.52914
3.39	2.48605
3.4	2.4923
3.41	2.5127
3.42	2.49559
3.43	2.5127
3.44	2.54296
3.45	2.53704
3.46	2.5298
3.47	2.5173
3.48	2.515
3.49	2.47158
3.5	2.47322
3.51	2.52849
3.52	2.53934
3.53	2.47355
3.54	2.49625
3.55	2.5048
3.56	2.49065
3.57	2.52717
3.58	2.54822
3.59	2.52223
3.6	2.50546
3.61	2.50381
3.62	2.55546
3.63	2.49263
3.64	2.48473
3.65	2.52355
3.66	2.48309
3.67	2.48112
3.68	2.51993
3.69	2.52125
3.7	2.52816
3.71	2.51993
3.72	2.50677
3.73	2.53638
3.74	2.49427
3.75	2.52914
3.76	2.52355
3.77	2.52421
3.78	2.51138
3.79	2.51598
3.8	2.46533
3.81	2.4946
3.82	2.4594
3.83	2.47059
3.84	2.46302
3.85	2.50348
3.86	2.50052
3.87	2.5048
3.88	2.51664
3.89	2.51302
3.9	2.50217
3.91	2.49362
3.92	2.53079
3.93	2.49691
3.94	2.51796
3.95	2.52421
3.96	2.50151
3.97	2.49263
3.98	2.49526
3.99	2.49493
4	2.51105
4.01	2.51237
4.02	2.53605
4.03	2.51039
4.04	2.51434
4.05	2.49427
4.06	2.53474
4.07	2.51335
4.08	2.4946
4.09	2.49954
4.1	2.52026
4.11	2.54559
4.12	2.52717
4.13	2.46927
4.14	2.50612
4.15	2.50809
4.16	2.48704
4.17	2.4923
4.18	2.48572
4.19	2.51072
4.2	2.49625
4.21	2.50381
4.22	2.52322
4.23	2.52947
4.24	2.49197
4.25	2.47848
4.26	2.49921
4.27	2.49987
4.28	2.50513
4.29	2.53112
4.3	2.52223
4.31	2.49526
4.32	2.4775
4.33	2.515
4.34	2.51401
4.35	2.50612
4.36	2.52881
4.37	2.49197
4.38	2.47059
4.39	2.49131
4.4	2.50184
4.41	2.4719
4.42	2.47815
4.43	2.50776
4.44	2.52881
4.45	2.51335
4.46	2.53309
4.47	2.54493
4.48	2.48539
4.49	2.50184
4.5	2.50908
4.51	2.50118
4.52	2.52585
4.53	2.50283
4.54	2.50677
4.55	2.52125
4.56	2.52026
4.57	2.4923
4.58	2.50612
4.59	2.51335
4.6	2.51302
4.61	2.52454
4.62	2.49625
4.63	2.52026
4.64	2.49789
4.65	2.50579
4.66	2.51434
4.67	2.48144
4.68	2.48572
4.69	2.48144
4.7	2.47552
4.71	2.50316
4.72	2.50941
4.73	2.5252
4.74	2.51796
4.75	2.49855
4.76	2.48046
4.77	2.50842
4.78	2.48868
4.79	2.50217
4.8	2.50842
4.81	2.50283
4.82	2.50019
4.83	2.5071
4.84	2.51664
4.85	2.48835
4.86	2.51072
4.87	2.5252
4.88	2.49329
4.89	2.48112
4.9	2.5025
4.91	2.50941
4.92	2.52289
4.93	2.48671
4.94	2.47388
4.95	2.51763
4.96	2.50612
4.97	2.50019
4.98	2.49921
4.99	2.53079
5	2.55316
5.01	2.53901
5.02	2.50381
5.03	2.51006
5.04	2.51763
5.05	2.5025
5.06	2.49427
5.07	2.48605
5.08	2.48506
5.09	2.50809
5.1	2.52783
5.11	2.49526
5.12	2.48967
5.13	2.48671
5.14	2.52651
5.15	2.48671
5.16	2.49033
5.17	2.52059
5.18	2.52454
5.19	2.51598
5.2	2.53901
5.21	2.49822
5.22	2.47651
5.23	2.51105
5.24	2.51105
5.25	2.51993
5.26	2.4946
5.27	2.46598
5.28	2.50908
5.29	2.47486
5.3	2.49789
5.31	2.48671
5.32	2.50579
5.33	2.49427
5.34	2.49954
5.35	2.49394
5.36	2.49888
5.37	2.49065
5.38	2.49427
5.39	2.50677
5.4	2.46927
5.41	2.48769
5.42	2.50381
5.43	2.53309
5.44	2.51039
5.45	2.52092
5.46	2.4923
5.47	2.50513
5.48	2.49197
5.49	2.52783
5.5	2.50941
5.51	2.49164
5.52	2.49691
5.53	2.49855
5.54	2.46006
5.55	2.49033
5.56	2.47783
5.57	2.5025
5.58	2.49526
5.59	2.51204
5.6	2.50151
5.61	2.51895
5.62	2.51763
5.63	2.53112
5.64	2.51796
5.65	2.52191
5.66	2.48638
5.67	2.50085
5.68	2.47585
5.69	2.48013
5.7	2.48539
5.71	2.47092
5.72	2.49493
5.73	2.51895
5.74	2.50875
5.75	2.50217
5.76	2.49987
5.77	2.51335
5.78	2.47486
5.79	2.48835
5.8	2.51993
5.81	2.52256
5.82	2.47388
5.83	2.4798
5.84	2.51105
5.85	2.50381
5.86	2.52158
5.87	2.49789
5.88	2.52684
5.89	2.50579
5.9	2.50283
5.91	2.51171
5.92	2.47717
5.93	2.49921
5.94	2.48112
5.95	2.49954
5.96	2.52059
5.97	2.48638
5.98	2.50118
5.99	2.48112
6	2.46598
6.01	2.50052
6.02	2.48901
6.03	2.51631
6.04	2.52158
6.05	2.4946
6.06	2.47618
6.07	2.49855
6.08	2.47026
6.09	2.47914
6.1	2.49362
6.11	2.48112
6.12	2.49263
6.13	2.50019
6.14	2.48769
6.15	2.4946
6.16	2.48704
6.17	2.48177
6.18	2.4923
6.19	2.4923
6.2	2.46467
6.21	2.51171
6.22	2.51072
6.23	2.49164
6.24	2.4821
6.25	2.47651
6.26	2.48868
6.27	2.50052
6.28	2.49592
6.29	2.50283
6.3	2.49065
6.31	2.47552
6.32	2.46204
6.33	2.47421
6.34	2.52125
6.35	2.50447
6.36	2.46533
6.37	2.46138
6.38	2.46368
6.39	2.48013
6.4	2.49427
6.41	2.49493
6.42	2.48901
6.43	2.49
6.44	2.45743
6.45	2.4673
6.46	2.47947
6.47	2.47783
6.48	2.49723
6.49	2.50184
6.5	2.48309
6.51	2.48967
6.52	2.48144
6.53	2.48276
6.54	2.48144
6.55	2.48539
6.56	2.47618
6.57	2.51072
6.58	2.50579
6.59	2.49855
6.6	2.48506
6.61	2.50908
6.62	2.49921
6.63	2.51467
6.64	2.49329
6.65	2.50513
6.66	2.50513
6.67	2.4923
6.68	2.45184
6.69	2.49394
6.7	2.51138
6.71	2.47322
6.72	2.4571
6.73	2.49723
6.74	2.46204
6.75	2.48704
6.76	2.49625
6.77	2.46533
6.78	2.49098
6.79	2.50348
6.8	2.49033
6.81	2.49625
6.82	2.48572
6.83	2.48638
6.84	2.50316
6.85	2.50118
6.86	2.49131
6.87	2.48079
6.88	2.47289
6.89	2.47651
6.9	2.55678
6.91	2.50644
6.92	2.48704
6.93	2.45875
6.94	2.5127
6.95	2.51335
6.96	2.46204
6.97	2.47486
6.98	2.47454
6.99	2.46236
7	2.49658
7.01	2.48934
7.02	2.48276
7.03	2.48506
7.04	2.5048
7.05	2.4775
7.06	2.49987
7.07	2.50381
7.08	2.49855
7.09	2.48473
7.1	2.49888
7.11	2.52487
7.12	2.50283
7.13	2.51006
7.14	2.49954
7.15	2.49625
7.16	2.51368
7.17	2.50283
7.18	2.47256
7.19	2.45513
7.2	2.48769
7.21	2.49493
7.22	2.4798
7.23	2.47947
7.24	2.51763
7.25	2.47881
7.26	2.47651
7.27	2.49756
7.28	2.49954
7.29	2.49296
7.3	2.48802
7.31	2.52092
7.32	2.53539
7.33	2.51401
7.34	2.48572
7.35	2.49658
7.36	2.4798
7.37	2.48375
7.38	2.48342
7.39	2.51006
7.4	2.50381
7.41	2.49
7.42	2.50085
7.43	2.50579
7.44	2.49625
7.45	2.49822
7.46	2.49987
7.47	2.49197
7.48	2.48408
7.49	2.5025
7.5	2.49855
7.51	2.48901
7.52	2.48342
7.53	2.49065
7.54	2.45973
7.55	2.49296
7.56	2.52388
7.57	2.49033
7.58	2.50809
7.59	2.50513
7.6	2.49789
7.61	2.48473
7.62	2.51533
7.63	2.50184
7.64	2.50677
7.65	2.47256
7.66	2.44394
7.67	2.49197
7.68	2.49131
7.69	2.47914
7.7	2.52289
7.71	2.51763
7.72	2.51467
7.73	2.50414
7.74	2.48967
7.75	2.50644
7.76	2.49723
7.77	2.48769
7.78	2.48835
7.79	2.49065
7.8	2.49954
7.81	2.52191
7.82	2.47125
7.83	2.49065
7.84	2.50743
7.85	2.50283
7.86	2.51533
7.87	2.46861
7.88	2.48737
7.89	2.48605
7.9	2.51335
7.91	2.49526
7.92	2.45842
7.93	2.4821
7.94	2.46072
7.95	2.47717
7.96	2.50151
7.97	2.47815
7.98	2.51829
7.99	2.4775
8	2.48309
8.01	2.49954
8.02	2.49954
8.03	2.51072
8.04	2.53177
8.05	2.52717
8.06	2.4923
8.07	2.47421
8.08	2.48671
8.09	2.49691
8.1	2.46598
8.11	2.50875
8.12	2.50316
8.13	2.49427
8.14	2.49329
8.15	2.47618
8.16	2.50579
8.17	2.50381
8.18	2.48079
8.19	2.48309
8.2	2.49658
8.21	2.48408
8.22	2.49789
8.23	2.51335
8.24	2.48835
8.25	2.49691
8.26	2.50973
8.27	2.5127
8.28	2.49296
8.29	2.47322
8.3	2.51434
8.31	2.49526
8.32	2.50447
8.33	2.49394
8.34	2.46302
8.35	2.48868
8.36	2.4923
8.37	2.48342
8.38	2.46565
8.39	2.4719
8.4	2.47289
8.41	2.50546
8.42	2.47092
8.43	2.48769
8.44	2.465
8.45	2.46796
8.46	2.49263
8.47	2.47848
8.48	2.48046
8.49	2.46401
8.5	2.49394
8.51	2.47881
8.52	2.46796
8.53	2.47519
8.54	2.50085
8.55	2.47651
8.56	2.49789
8.57	2.49625
8.58	2.47783
8.59	2.48605
8.6	2.48901
8.61	2.48473
8.62	2.54789
8.63	2.4946
8.64	2.49362
8.65	2.49
8.66	2.50283
8.67	2.47651
8.68	2.48375
8.69	2.49559
8.7	2.51467
8.71	2.4946
8.72	2.50447
8.73	2.49756
8.74	2.4696
8.75	2.45907
8.76	2.48375
8.77	2.46105
8.78	2.4594
8.79	2.47717
8.8	2.49197
8.81	2.50184
8.82	2.49098
8.83	2.45546
8.84	2.47914
8.85	2.46598
8.86	2.46565
8.87	2.46401
8.88	2.50151
8.89	2.47914
8.9	2.47092
8.91	2.51927
8.92	2.51105
8.93	2.51993
8.94	2.47815
8.95	2.45907
8.96	2.49131
8.97	2.50151
8.98	2.48177
8.99	2.49855
9	2.47092
9.01	2.46894
9.02	2.50283
9.03	2.48901
9.04	2.48539
9.05	2.5025
9.06	2.51566
9.07	2.47914
9.08	2.45809
9.09	2.48177
9.1	2.48901
9.11	2.47684
9.12	2.47947
9.13	2.50316
9.14	2.49691
9.15	2.48901
9.16	2.47322
9.17	2.49394
9.18	2.48112
9.19	2.45973
9.2	2.46763
9.21	2.46829
9.22	2.51138
9.23	2.47158
9.24	2.44855
9.25	2.52256
9.26	2.52783
9.27	2.49592
9.28	2.47552
9.29	2.4844
9.3	2.48013
9.31	2.4571
9.32	2.4423
9.33	2.49131
9.34	2.50316
9.35	2.47223
9.36	2.49756
9.37	2.52816
9.38	2.44526
9.39	2.45217
9.4	2.47454
9.41	2.49197
9.42	2.46565
9.43	2.44065
9.44	2.50184
9.45	2.50973
9.46	2.47454
9.47	2.48013
9.48	2.46927
9.49	2.47848
9.5	2.48802
9.51	2.45118
9.52	2.45019
9.53	2.45513
9.54	2.48375
9.55	2.45743
9.56	2.49329
9.57	2.51401
9.58	2.52487
9.59	2.50283
9.6	2.48342
9.61	2.48572
9.62	2.49756
9.63	2.49559
9.64	2.48835
9.65	2.50184
9.66	2.49526
9.67	2.48243
9.68	2.4719
9.69	2.5071
9.7	2.48112
9.71	2.46894
9.72	2.47684
9.73	2.48802
9.74	2.48506
9.75	2.49
9.76	2.50184
9.77	2.48375
9.78	2.47783
9.79	2.49723
9.8	2.47914
9.81	2.49493
9.82	2.465
9.83	2.47256
9.84	2.46664
9.85	2.4821
9.86	2.50875
9.87	2.47717
9.88	2.4798
9.89	2.49723
9.9	2.50316
9.91	2.47881
9.92	2.48506
9.93	2.49427
9.94	2.49296
9.95	2.48112
9.96	2.49987
9.97	2.46894
9.98	2.48967
9.99	2.49987
10	2.46105
10.01	2.45842
10.02	2.50381
10.03	2.48539
10.04	2.4673
10.05	2.51006
10.06	2.49493
10.07	2.49592
10.08	2.4946
10.09	2.49164
10.1	2.46598
10.11	2.43967
10.12	2.45611
10.13	2.49987
10.14	2.48704
10.15	2.49888
10.16	2.48704
10.17	2.51039
10.18	2.48408
10.19	2.48276
10.2	2.49131
10.21	2.46664
10.22	2.4798
10.23	2.46697
10.24	2.49723
10.25	2.48276
10.26	2.50381
10.27	2.5048
10.28	2.49197
10.29	2.50579
10.3	2.48572
10.31	2.47618
10.32	2.47783
10.33	2.49559
10.34	2.48276
10.35	2.4548
10.36	2.46204
10.37	2.46565
10.38	2.48243
10.39	2.48868
10.4	2.49131
10.41	2.4673
10.42	2.4775
10.43	2.50118
10.44	2.51237
10.45	2.50941
10.46	2.49427
10.47	2.4798
10.48	2.49164
10.49	2.4696
10.5	2.48506
10.51	2.47783
10.52	2.47026
10.53	2.46434
10.54	2.49987
10.55	2.47684
10.56	2.50085
10.57	2.48671
10.58	2.49559
10.59	2.48605
10.6	2.46401
10.61	2.48934
10.62	2.47322
10.63	2.48408
10.64	2.50118
10.65	2.49789
10.66	2.44954
10.67	2.465
10.68	2.47322
10.69	2.46138
10.7	2.46204
10.71	2.47881
10.72	2.48408
10.73	2.44526
10.74	2.49921
10.75	2.48671
10.76	2.47618
10.77	2.45677
10.78	2.4775
10.79	2.48572
10.8	2.47026
10.81	2.4821
10.82	2.48737
10.83	2.46039
10.84	2.48243
10.85	2.47421
10.86	2.49131
10.87	2.47585
10.88	2.48046
10.89	2.45743
10.9	2.45875
10.91	2.48375
10.92	2.4798
10.93	2.45447
10.94	2.48868
10.95	2.44888
10.96	2.46269
10.97	2.47223
10.98	2.4923
10.99	2.48704
11	2.47618
11.01	2.4923
11.02	2.48243
11.03	2.4798
11.04	2.46598
11.05	2.49065
11.06	2.47783
11.07	2.46335
11.08	2.46368
11.09	2.48046
11.1	2.47651
11.11	2.51434
11.12	2.47026
11.13	2.46335
11.14	2.47618
11.15	2.4594
11.16	2.46861
11.17	2.46631
11.18	2.48177
11.19	2.49921
11.2	2.48309
11.21	2.49822
11.22	2.50151
11.23	2.48605
11.24	2.47519
11.25	2.48967
11.26	2.47125
11.27	2.47256
11.28	2.48408
11.29	2.46072
11.3	2.4696
11.31	2.49296
11.32	2.47486
11.33	2.48967
11.34	2.48342
11.35	2.46467
11.36	2.48737
11.37	2.46533
11.38	2.4344
11.39	2.44986
11.4	2.4719
11.41	2.48671
11.42	2.48901
11.43	2.49987
11.44	2.47618
11.45	2.47322
11.46	2.48802
11.47	2.45579
11.48	2.50743
11.49	2.49098
11.5	2.47651
11.51	2.50513
11.52	2.4946
11.53	2.48342
11.54	2.45414
11.55	2.47454
11.56	2.46631
11.57	2.48539
11.58	2.48243
11.59	2.46533
11.6	2.46829
11.61	2.49394
11.62	2.49691
11.63	2.47618
11.64	2.49493
11.65	2.51862
11.66	2.50513
11.67	2.4946
11.68	2.45776
11.69	2.4923
11.7	2.49329
11.71	2.44855
11.72	2.465
11.73	2.48967
11.74	2.4719
11.75	2.48572
11.76	2.44065
11.77	2.47289
11.78	2.44789
11.79	2.44921
11.8	2.48605
11.81	2.50052
11.82	2.48079
11.83	2.48013
11.84	2.45447
11.85	2.47355
11.86	2.4844
11.87	2.45019
11.88	2.50381
11.89	2.47454
11.9	2.48144
11.91	2.45282
11.92	2.44361
11.93	2.45842
11.94	2.45118
11.95	2.47059
11.96	2.4673
11.97	2.49921
11.98	2.47881
11.99	2.46927
12	2.47026
12.01	2.47585
12.02	2.45579
12.03	2.45151
12.04	2.48177
12.05	2.47059
12.06	2.46302
12.07	2.48506
12.08	2.46796
12.09	2.46993
12.1	2.51467
12.11	2.44954
12.12	2.47322
12.13	2.45875
12.14	2.46533
12.15	2.47947
12.16	2.47092
12.17	2.47092
12.18	2.45579
12.19	2.47223
12.2	2.49329
12.21	2.47881
12.22	2.48506
12.23	2.47158
12.24	2.46796
12.25	2.48276
12.26	2.50019
12.27	2.48671
12.28	2.47881
12.29	2.49098
12.3	2.48079
12.31	2.48046
12.32	2.51105
12.33	2.47125
12.34	2.46861
12.35	2.47519
12.36	2.4719
12.37	2.45151
12.38	2.47618
12.39	2.48309
12.4	2.4719
12.41	2.46598
12.42	2.47289
12.43	2.4844
12.44	2.49296
12.45	2.48276
12.46	2.48506
12.47	2.49
12.48	2.48539
12.49	2.49
12.5	2.47783
12.51	2.47355
12.52	2.48671
12.53	2.46697
12.54	2.47256
12.55	2.47585
12.56	2.49362
12.57	2.47881
12.58	2.48802
12.59	2.49658
12.6	2.47388
12.61	2.47684
12.62	2.47651
12.63	2.47815
12.64	2.48835
12.65	2.45315
12.66	2.45348
12.67	2.48375
12.68	2.48375
12.69	2.47848
12.7	2.47914
12.71	2.46829
12.72	2.47223
12.73	2.50612
12.74	2.47947
12.75	2.46927
12.76	2.45875
12.77	2.46861
12.78	2.46368
12.79	2.465
12.8	2.46927
12.81	2.45776
12.82	2.49362
12.83	2.50381
12.84	2.47848
12.85	2.47585
12.86	2.47552
12.87	2.47454
12.88	2.48375
12.89	2.48835
12.9	2.49033
12.91	2.46006
12.92	2.47618
12.93	2.48112
12.94	2.5127
12.95	2.47618
12.96	2.47618
12.97	2.47815
12.98	2.47684
12.99	2.48737
13	2.47256
13.01	2.48309
13.02	2.47684
13.03	2.46533
13.04	2.4798
13.05	2.48737
13.06	2.47486
13.07	2.46664
13.08	2.44164
13.09	2.45907
13.1	2.48506
13.11	2.48605
13.12	2.4673
13.13	2.46401
13.14	2.49065
13.15	2.48737
13.16	2.49065
13.17	2.4946
13.18	2.46993
13.19	2.43407
13.2	2.45579
13.21	2.44822
13.22	2.45217
13.23	2.47947
13.24	2.47223
13.25	2.46533
13.26	2.43177
13.27	2.45579
13.28	2.47158
13.29	2.48112
13.3	2.465
13.31	2.44888
13.32	2.45085
13.33	2.44657
13.34	2.47651
13.35	2.46631
13.36	2.46039
13.37	2.48342
13.38	2.44263
13.39	2.47256
13.4	2.50151
13.41	2.46565
13.42	2.49131
13.43	2.48802
13.44	2.46335
13.45	2.46105
13.46	2.4423
13.47	2.46467
13.48	2.48309
13.49	2.46368
13.5	2.47125
13.51	2.50316
13.52	2.47552
13.53	2.47486
13.54	2.48079
13.55	2.45513
13.56	2.49362
13.57	2.43144
13.58	2.46927
13.59	2.48473
13.6	2.47585
13.61	2.44657
13.62	2.45842
13.63	2.47783
13.64	2.48046
13.65	2.41927
13.66	2.4594
13.67	2.45776
13.68	2.45677
13.69	2.44296
13.7	2.4696
13.71	2.44296
13.72	2.47158
13.73	2.48737
13.74	2.48013
