"BIO-KINE ASCII FILE"
"_COMMENT"	"MOS-500 Spectrometer"
"_COMMENT"	"Kinetics measurement"
"_COMMENT"	"Y Unit : Volt,  X Unit : s"
"_COMMENT"	"Excitation wavelength : 380 nm"
"_COMMENT"	"Fentes bandwidth =  1 nm"
"_COMMENT"	"HV= 1000V"
"_COMMENT"	"Timebase  1 =  .01 s   5001 pts"
"_SFM"	"SFM-400 /S  Advanced mode"
"_SFM"	"Ratio : S1: 2.5, S2: 0, S3: 0, S4: 1"
"_SFM"	"Content : S1: , S2: , S3: , S4:"
"_SFM"	"Concentration : S1: , S2: , S3: , S4:"
"_SFM"	"Total volume : 209 µl  Flow : 3.5 mL/s"
"_SFM"	"Acquisition start :  10 ms before stop"
"_SFM"	"cuve=FC-15, s1=10 ml , s2=10 ml , s3=10 ml , s4=1.9 ml"
"_UNITX"	"s"
"_UNITY"	"Volt"
"_DELTAX"	0
"_DATA"
1e-300	8.26944
0.01	8.4655
0.02	8.56123
0.03	8.71485
0.04	8.79149
0.05	8.80038
0.06	8.79873
0.07	8.87242
0.08	8.86978
0.09	8.84084
0.1	8.84939
0.11	8.86551
0.12	8.87735
0.13	8.85498
0.14	8.83492
0.15	8.83689
0.16	8.88755
0.17	8.88821
0.18	8.85268
0.19	8.81518
0.2	8.8586
0.21	8.89347
0.22	8.87242
0.23	8.90268
0.24	8.90827
0.25	8.82702
0.26	8.79972
0.27	8.82406
0.28	8.84117
0.29	8.85597
0.3	8.82768
0.31	8.82011
0.32	8.82406
0.33	8.85926
0.34	8.85597
0.35	8.8234
0.36	8.8336
0.37	8.83623
0.38	8.79347
0.39	8.77899
0.4	8.84972
0.41	8.79873
0.42	8.79445
0.43	8.79676
0.44	8.79906
0.45	8.82735
0.46	8.81057
0.47	8.78985
0.48	8.76386
0.49	8.79906
0.5	8.75926
0.51	8.70893
0.52	8.74708
0.53	8.78228
0.54	8.79774
0.55	8.72735
0.56	8.6734
0.57	8.68853
0.58	8.69873
0.59	8.70432
0.6	8.66452
0.61	8.70794
0.62	8.74972
0.63	8.70728
0.64	8.7109
0.65	8.74774
0.66	8.72833
0.67	8.73064
0.68	8.68064
0.69	8.75333
0.7	8.68129
0.71	8.67471
0.72	8.71156
0.73	8.7155
0.74	8.68425
0.75	8.67406
0.76	8.68886
0.77	8.73754
0.78	8.69083
0.79	8.69182
0.8	8.66814
0.81	8.6461
0.82	8.64577
0.83	8.64577
0.84	8.68064
0.85	8.60761
0.86	8.59313
0.87	8.64741
0.88	8.63787
0.89	8.64741
0.9	8.65662
0.91	8.62702
0.92	8.62537
0.93	8.55991
0.94	8.58623
0.95	8.56978
0.96	8.59313
0.97	8.5928
0.98	8.57076
0.99	8.63162
1	8.61846
1.01	8.60004
1.02	8.59609
1.03	8.60958
1.04	8.5609
1.05	8.57109
1.06	8.53063
1.07	8.52142
1.08	8.5257
1.09	8.58688
1.1	8.54346
1.11	8.56287
1.12	8.54412
1.13	8.49675
1.14	8.57076
1.15	8.50201
1.16	8.53557
1.17	8.52932
1.18	8.51451
1.19	8.48195
1.2	8.5007
1.21	8.52043
1.22	8.48984
1.23	8.51221
1.24	8.52405
1.25	8.53984
1.26	8.54412
1.27	8.50136
1.28	8.48096
1.29	8.53228
1.3	8.49938
1.31	8.50037
1.32	8.49017
1.33	8.48918
1.34	8.47372
1.35	8.47043
1.36	8.42668
1.37	8.44576
1.38	8.45826
1.39	8.503
1.4	8.4882
1.41	8.46024
1.42	8.4757
1.43	8.45859
1.44	8.43063
1.45	8.39708
1.46	8.44017
1.47	8.478
1.48	8.41616
1.49	8.38984
1.5	8.37142
1.51	8.36879
1.52	8.44905
1.53	8.41681
1.54	8.31846
1.55	8.41089
1.56	8.44609
1.57	8.43458
1.58	8.40497
1.59	8.43096
1.6	8.40826
1.61	8.34379
1.62	8.34642
1.63	8.3826
1.64	8.40892
1.65	8.41024
1.66	8.37142
1.67	8.35793
1.68	8.39576
1.69	8.37438
1.7	8.32076
1.71	8.33786
1.72	8.31254
1.73	8.35004
1.74	8.3599
1.75	8.30036
1.76	8.34543
1.77	8.34148
1.78	8.32339
1.79	8.31714
1.8	8.3303
1.81	8.32339
1.82	8.30201
1.83	8.34412
1.84	8.28128
1.85	8.33819
1.86	8.34477
1.87	8.3303
1.88	8.29214
1.89	8.31977
1.9	8.30826
1.91	8.30168
1.92	8.28063
1.93	8.27701
1.94	8.29444
1.95	8.26221
1.96	8.25596
1.97	8.21516
1.98	8.26714
1.99	8.28951
2	8.30201
2.01	8.30826
2.02	8.30135
2.03	8.27076
2.04	8.23424
2.05	8.18391
2.06	8.28852
2.07	8.23655
2.08	8.22964
2.09	8.25069
2.1	8.24576
2.11	8.19214
2.12	8.19049
2.13	8.25036
2.14	8.23951
2.15	8.24477
2.16	8.23655
2.17	8.14181
2.18	8.19773
2.19	8.22076
2.2	8.13951
2.21	8.16155
2.22	8.16615
2.23	8.18095
2.24	8.23819
2.25	8.21944
2.26	8.18655
2.27	8.17964
2.28	8.14904
2.29	8.17997
2.3	8.18556
2.31	8.14378
2.32	8.15727
2.33	8.14181
2.34	8.15694
2.35	8.20168
2.36	8.18424
2.37	8.15858
2.38	8.14576
2.39	8.13128
2.4	8.16747
2.41	8.19378
2.42	8.13622
2.43	8.11187
2.44	8.11648
2.45	8.1122
2.46	8.1678
2.47	8.1553
2.48	8.14904
2.49	8.12865
2.5	8.09082
2.51	8.06648
2.52	8.09937
2.53	8.13095
2.54	8.13786
2.55	8.19444
2.56	8.15168
2.57	8.11122
2.58	8.10793
2.59	8.09937
2.6	8.08457
2.61	8.04378
2.62	8.11516
2.63	8.09444
2.64	8.11122
2.65	8.09707
2.66	8.05628
2.67	8.07667
2.68	8.04674
2.69	8.08325
2.7	8.08523
2.71	8.02766
2.72	8.07503
2.73	8.02733
2.74	8.04838
2.75	8.01417
2.76	8.04049
2.77	8.02009
2.78	8.02832
2.79	8.02931
2.8	7.99444
2.81	8.05858
2.82	8.00792
2.83	8.01154
2.84	7.97601
2.85	7.9543
2.86	7.96417
2.87	7.96417
2.88	7.96516
2.89	7.99871
2.9	8.00102
2.91	7.95167
2.92	7.98819
2.93	7.96582
2.94	7.94608
2.95	7.9872
2.96	7.98654
2.97	7.95397
2.98	7.96319
2.99	7.97601
3	8.02931
3.01	8.02306
3.02	7.98819
3.03	7.9724
3.04	7.92305
3.05	7.96121
3.06	7.97634
3.07	7.94608
3.08	7.96615
3.09	7.95299
3.1	7.94838
3.11	7.97009
3.12	7.94674
3.13	7.90595
3.14	7.89312
3.15	7.91483
3.16	7.94411
3.17	7.89772
3.18	7.90035
3.19	7.8941
3.2	7.91022
3.21	7.902
3.22	7.90496
3.23	7.85924
3.24	7.9066
3.25	7.91812
3.26	7.92601
3.27	7.8293
3.28	7.90364
3.29	7.87799
3.3	7.89476
3.31	7.91417
3.32	7.8895
3.33	7.88884
3.34	7.89739
3.35	7.85233
3.36	7.86779
3.37	7.8997
3.38	7.87667
3.39	7.86746
3.4	7.82568
3.41	7.82075
3.42	7.83062
3.43	7.83917
3.44	7.86976
3.45	7.85693
3.46	7.79969
3.47	7.83127
3.48	7.85858
3.49	7.85101
3.5	7.84016
3.51	7.78752
3.52	7.79213
3.53	7.85299
3.54	7.84575
3.55	7.7941
3.56	7.83555
3.57	7.79081
3.58	7.75858
3.59	7.83818
3.6	7.87042
3.61	7.80792
3.62	7.7543
3.63	7.81252
3.64	7.78259
3.65	7.83391
3.66	7.83391
3.67	7.82798
3.68	7.81351
3.69	7.79542
3.7	7.77798
3.71	7.77798
3.72	7.73357
3.73	7.7645
3.74	7.7714
3.75	7.76318
3.76	7.76976
3.77	7.72305
3.78	7.78029
3.79	7.76252
3.8	7.75825
3.81	7.77009
3.82	7.74838
3.83	7.78654
3.84	7.78654
3.85	7.8043
3.86	7.72502
3.87	7.7168
3.88	7.7793
3.89	7.73752
3.9	7.72535
3.91	7.75693
3.92	7.69147
3.93	7.75956
3.94	7.7418
3.95	7.69114
3.96	7.69838
3.97	7.73028
3.98	7.71055
3.99	7.69574
4	7.75298
4.01	7.70463
4.02	7.68456
4.03	7.69147
4.04	7.6691
4.05	7.69772
4.06	7.69114
4.07	7.70759
4.08	7.70331
4.09	7.71581
4.1	7.73555
4.11	7.70857
4.12	7.64476
4.13	7.62897
4.14	7.69213
4.15	7.67173
4.16	7.64673
4.17	7.66515
4.18	7.67338
4.19	7.68259
4.2	7.62962
4.21	7.6737
4.22	7.62633
4.23	7.64048
4.24	7.59574
4.25	7.63587
4.26	7.6566
4.27	7.66976
4.28	7.6487
4.29	7.65265
4.3	7.63785
4.31	7.61153
4.32	7.6112
4.33	7.65265
4.34	7.63423
4.35	7.60101
4.36	7.63555
4.37	7.61581
4.38	7.6316
4.39	7.66351
4.4	7.64706
4.41	7.66943
4.42	7.6737
4.43	7.5941
4.44	7.57469
4.45	7.63719
4.46	7.57535
4.47	7.58982
4.48	7.62666
4.49	7.60462
4.5	7.61022
4.51	7.58225
4.52	7.55462
4.53	7.63291
4.54	7.58522
4.55	7.57831
4.56	7.61581
4.57	7.62305
4.58	7.57666
4.59	7.55824
4.6	7.5714
4.61	7.54344
4.62	7.5362
4.63	7.55824
4.64	7.526
4.65	7.60857
4.66	7.59739
4.67	7.60857
4.68	7.56449
4.69	7.56679
4.7	7.51613
4.71	7.52239
4.72	7.53686
4.73	7.55298
4.74	7.56778
4.75	7.52008
4.76	7.54475
4.77	7.52008
4.78	7.52929
4.79	7.55758
4.8	7.55989
4.81	7.57304
4.82	7.56054
4.83	7.56252
4.84	7.51285
4.85	7.5112
4.86	7.55298
4.87	7.526
4.88	7.48258
4.89	7.49475
4.9	7.51317
4.91	7.55923
4.92	7.54969
4.93	7.49475
4.94	7.51877
4.95	7.49212
4.96	7.46548
4.97	7.49903
4.98	7.45429
4.99	7.44278
5	7.46909
5.01	7.501
5.02	7.51844
5.03	7.49442
5.04	7.50002
5.05	7.46548
5.06	7.46021
5.07	7.48324
5.08	7.49936
5.09	7.51186
5.1	7.47238
5.11	7.48456
5.12	7.43126
5.13	7.46219
5.14	7.5089
5.15	7.43061
5.16	7.376
5.17	7.45133
5.18	7.44179
5.19	7.45298
5.2	7.43883
5.21	7.38389
5.22	7.39574
5.23	7.41909
5.24	7.46416
5.25	7.40495
5.26	7.42074
5.27	7.4362
5.28	7.45363
5.29	7.41021
5.3	7.40133
5.31	7.41087
5.32	7.38357
5.33	7.45495
5.34	7.41975
5.35	7.3987
5.36	7.40396
5.37	7.41547
5.38	7.38916
5.39	7.36218
5.4	7.42534
5.41	7.37238
5.42	7.38949
5.43	7.40232
5.44	7.40495
5.45	7.38784
5.46	7.35429
5.47	7.40692
5.48	7.40528
5.49	7.29179
5.5	7.39146
5.51	7.40725
5.52	7.35133
5.53	7.34343
5.54	7.3783
5.55	7.39146
5.56	7.41218
5.57	7.39278
5.58	7.35034
5.59	7.32863
5.6	7.32995
5.61	7.34146
5.62	7.32534
5.63	7.35495
5.64	7.39278
5.65	7.39475
5.66	7.36843
5.67	7.38784
5.68	7.34146
5.69	7.35363
5.7	7.37666
5.71	7.36087
5.72	7.32501
5.73	7.35396
5.74	7.32929
5.75	7.39672
5.76	7.38422
5.77	7.32074
5.78	7.25231
5.79	7.32205
5.8	7.38982
5.81	7.32764
5.82	7.25034
5.83	7.31514
5.84	7.33422
5.85	7.35166
5.86	7.32666
5.87	7.2931
5.88	7.29902
5.89	7.34442
5.9	7.27402
5.91	7.3533
5.92	7.29968
5.93	7.32699
5.94	7.31843
5.95	7.30955
5.96	7.28948
5.97	7.26975
5.98	7.32205
5.99	7.29705
6	7.34047
6.01	7.33225
6.02	7.30791
6.03	7.31909
6.04	7.29376
6.05	7.26415
6.06	7.31087
6.07	7.26646
6.08	7.27633
6.09	7.29837
6.1	7.20856
6.11	7.27962
6.12	7.30462
6.13	7.29146
6.14	7.25396
6.15	7.21415
6.16	7.26119
6.17	7.28159
6.18	7.2056
6.19	7.23159
6.2	7.28225
6.21	7.25034
6.22	7.2704
6.23	7.19475
6.24	7.26087
6.25	7.21317
6.26	7.21317
6.27	7.23389
6.28	7.27896
6.29	7.29442
6.3	7.29343
6.31	7.26218
6.32	7.26284
6.33	7.24211
6.34	7.22731
6.35	7.24705
6.36	7.24738
6.37	7.24902
6.38	7.2329
6.39	7.2533
6.4	7.25462
6.41	7.19442
6.42	7.24705
6.43	7.27008
6.44	7.24771
6.45	7.25494
6.46	7.15988
6.47	7.18685
6.48	7.25823
6.49	7.20757
6.5	7.21744
6.51	7.2431
6.52	7.22435
6.53	7.24014
6.54	7.23126
6.55	7.24639
6.56	7.16843
6.57	7.20593
6.58	7.17336
6.59	7.23192
6.6	7.25626
6.61	7.23126
6.62	7.17205
6.63	7.1579
6.64	7.17567
6.65	7.13455
6.66	7.16843
6.67	7.1704
6.68	7.16645
6.69	7.18455
6.7	7.16382
6.71	7.18948
6.72	7.19178
6.73	7.19442
6.74	7.20264
6.75	7.12928
6.76	7.18027
6.77	7.21218
6.78	7.17599
6.79	7.14277
6.8	7.15363
6.81	7.1408
6.82	7.1783
6.83	7.15395
6.84	7.16218
6.85	7.17303
6.86	7.17007
6.87	7.14672
6.88	7.15757
6.89	7.16777
6.9	7.16711
6.91	7.17698
6.92	7.16744
6.93	7.18224
6.94	7.17665
6.95	7.15132
6.96	7.1227
6.97	7.11382
6.98	7.11284
6.99	7.14606
7	7.13027
7.01	7.14968
7.02	7.07731
7.03	7.06481
7.04	7.10955
7.05	7.17896
7.06	7.18981
7.07	7.10264
7.08	7.13488
7.09	7.14474
7.1	7.1283
7.11	7.12139
7.12	7.09803
7.13	7.09112
7.14	7.07501
7.15	7.11974
7.16	7.12731
7.17	7.15527
7.18	7.17007
7.19	7.1283
7.2	7.11218
7.21	7.04836
7.22	7.06678
7.23	7.10395
7.24	7.10889
7.25	7.09606
7.26	7.11415
7.27	7.11284
7.28	7.12961
7.29	7.10231
7.3	7.10593
7.31	7.0908
7.32	7.03783
7.33	7.11284
7.34	7.02764
7.35	7.07566
7.36	7.09672
7.37	7.11086
7.38	7.16284
7.39	7.1204
7.4	7.09573
7.41	7.09343
7.42	7.13652
7.43	7.1056
7.44	7.04112
7.45	7.09376
7.46	7.08158
7.47	7.08027
7.48	7.10757
7.49	7.13323
7.5	7.05691
7.51	7.07369
7.52	7.11612
7.53	7.05954
7.54	7.01119
7.55	7.01645
7.56	7.04704
7.57	7.03816
7.58	7.03158
7.59	7.04112
7.6	7.11711
7.61	7.1056
7.62	7.07402
7.63	7.07139
7.64	7.05264
7.65	7.03158
7.66	7.08783
7.67	7.06185
7.68	7.06678
7.69	7.06777
7.7	7.06579
7.71	7.06711
7.72	7.06678
7.73	7.00856
7.74	7.03224
7.75	7.09376
7.76	7.05922
7.77	7.05658
7.78	6.99112
7.79	7.01349
7.8	7.0227
7.81	7.07237
7.82	7.05494
7.83	7.06645
7.84	7.02994
7.85	7.04046
7.86	7.04803
7.87	7.0375
7.88	7.05658
7.89	7.03816
7.9	7.02303
7.91	7.01349
7.92	7.0352
7.93	7.03487
7.94	7.05691
7.95	6.99342
7.96	7.01908
7.97	7.00691
7.98	7.0431
7.99	6.99013
8	7.00461
8.01	7.00395
8.02	7.03093
8.03	7.00198
8.04	7.00757
8.05	7.03191
8.06	7.01217
8.07	7.0056
8.08	7.04408
8.09	6.99704
8.1	7.02698
8.11	7.06645
8.12	7.02303
8.13	6.94309
8.14	7.01875
8.15	6.96941
8.16	6.97632
8.17	6.96349
8.18	6.97895
8.19	6.99375
8.2	6.99869
8.21	6.9704
8.22	6.94276
8.23	6.98059
8.24	6.99112
8.25	6.98553
8.26	7.0125
8.27	6.99967
8.28	6.93882
8.29	6.92007
8.3	6.97336
8.31	6.97961
8.32	6.9523
8.33	6.97369
8.34	6.99046
8.35	6.98191
8.36	6.93553
8.37	6.95527
8.38	6.97632
8.39	6.98652
8.4	6.98487
8.41	6.97303
8.42	6.95395
8.43	6.94244
8.44	6.94803
8.45	6.9102
8.46	6.95559
8.47	6.94836
8.48	6.9523
8.49	6.91941
8.5	6.9977
8.51	6.96316
8.52	6.93092
8.53	6.9579
8.54	6.93487
8.55	6.93651
8.56	6.99474
8.57	6.91415
8.58	6.97204
8.59	6.97204
8.6	6.9352
8.61	6.92796
8.62	6.96316
8.63	6.98586
8.64	7.0125
8.65	6.97829
8.66	6.97566
8.67	6.95691
8.68	7.00625
8.69	6.94178
8.7	6.89211
8.71	6.91842
8.72	6.92467
8.73	6.9375
8.74	6.93158
8.75	6.90888
8.76	6.9148
8.77	6.93092
8.78	6.93355
8.79	6.95395
8.8	6.94145
8.81	6.93323
8.82	6.91612
8.83	6.90066
8.84	6.87632
8.85	6.9204
8.86	6.85625
8.87	6.89309
8.88	6.83684
8.89	6.85987
8.9	6.91842
8.91	6.91283
8.92	6.87401
8.93	6.88454
8.94	6.93158
8.95	6.89375
8.96	6.91151
8.97	6.94046
8.98	6.89013
8.99	6.91184
9	6.89671
9.01	6.90493
9.02	6.87533
9.03	6.91974
9.04	6.90362
9.05	6.90658
9.06	6.93257
9.07	6.87007
9.08	6.91382
9.09	6.9148
9.1	6.92237
9.11	6.91151
9.12	6.94244
9.13	6.89572
9.14	6.90625
9.15	6.93783
9.16	6.8773
9.17	6.89671
9.18	6.90165
9.19	6.90132
9.2	6.90329
9.21	6.87961
9.22	6.89079
9.23	6.85526
9.24	6.85855
9.25	6.86447
9.26	6.88947
9.27	6.84901
9.28	6.83914
9.29	6.85329
9.3	6.88125
9.31	6.85099
9.32	6.85263
9.33	6.85888
9.34	6.85197
9.35	6.8954
9.36	6.81776
9.37	6.84441
9.38	6.85724
9.39	6.82039
9.4	6.83158
9.41	6.8546
9.42	6.86579
9.43	6.84276
9.44	6.83256
9.45	6.8171
9.46	6.88322
9.47	6.90099
9.48	6.8398
9.49	6.87138
9.5	6.8727
9.51	6.83717
9.52	6.86513
9.53	6.87303
9.54	6.8625
9.55	6.79013
9.56	6.85625
9.57	6.84408
9.58	6.88421
9.59	6.78552
9.6	6.88191
9.61	6.87697
9.62	6.825
9.63	6.78947
9.64	6.86349
9.65	6.85757
9.66	6.81809
9.67	6.85395
9.68	6.85757
9.69	6.81974
9.7	6.8648
9.71	6.83125
9.72	6.81908
9.73	6.85888
9.74	6.89507
9.75	6.82434
9.76	6.80296
9.77	6.88553
9.78	6.85822
9.79	6.79276
9.8	6.84408
9.81	6.84145
9.82	6.82796
9.83	6.81283
9.84	6.79145
9.85	6.82401
9.86	6.8046
9.87	6.80164
9.88	6.83388
9.89	6.84671
9.9	6.82171
9.91	6.85592
9.92	6.8352
9.93	6.77138
9.94	6.84178
9.95	6.82006
9.96	6.83618
9.97	6.84868
9.98	6.83224
9.99	6.86283
10	6.81381
10.01	6.83224
10.02	6.8
10.03	6.78454
10.04	6.77269
10.05	6.8421
10.06	6.88158
10.07	6.79112
10.08	6.8671
10.09	6.78487
10.1	6.76644
10.11	6.80296
10.12	6.81513
10.13	6.76381
10.14	6.79572
10.15	6.79375
10.16	6.8023
10.17	6.78059
10.18	6.83651
10.19	6.81677
10.2	6.78256
10.21	6.72927
10.22	6.79473
10.23	6.78783
10.24	6.80296
10.25	6.83947
10.26	6.75197
10.27	6.78816
10.28	6.79506
10.29	6.76381
10.3	6.78487
10.31	6.81118
10.32	6.7671
10.33	6.78651
10.34	6.81776
10.35	6.81414
10.36	6.77335
10.37	6.75789
10.38	6.71381
10.39	6.77796
10.4	6.75296
10.41	6.775
10.42	6.79704
10.43	6.76973
10.44	6.73881
10.45	6.775
10.46	6.73848
10.47	6.79704
10.48	6.78585
10.49	6.77467
10.5	6.77105
10.51	6.75427
10.52	6.72927
10.53	6.79112
10.54	6.76579
10.55	6.77105
10.56	6.80954
10.57	6.77796
10.58	6.725
10.59	6.75394
10.6	6.80625
10.61	6.80822
10.62	6.73355
10.63	6.77204
10.64	6.73059
10.65	6.71973
10.66	6.77697
10.67	6.8046
10.68	6.75
10.69	6.77138
10.7	6.72664
10.71	6.76513
10.72	6.77566
10.73	6.73684
10.74	6.77894
10.75	6.8023
10.76	6.76973
10.77	6.73223
10.78	6.77993
10.79	6.78552
10.8	6.77072
10.81	6.75789
10.82	6.76085
10.83	6.75987
10.84	6.75855
10.85	6.74539
10.86	6.77829
10.87	6.74605
10.88	6.74802
10.89	6.78519
10.9	6.7444
10.91	6.70855
10.92	6.66151
10.93	6.7319
10.94	6.76809
10.95	6.74013
10.96	6.77269
10.97	6.74473
10.98	6.75033
10.99	6.72796
11	6.80098
11.01	6.7546
11.02	6.72565
11.03	6.72894
11.04	6.79079
11.05	6.74342
11.06	6.73322
11.07	6.72598
11.08	6.70986
11.09	6.70723
11.1	6.74934
11.11	6.7421
11.12	6.71611
11.13	6.73158
11.14	6.71809
11.15	6.72072
11.16	6.74539
11.17	6.75592
11.18	6.80197
11.19	6.75592
11.2	6.7444
11.21	6.73585
11.22	6.71447
11.23	6.7444
11.24	6.70197
11.25	6.75263
11.26	6.75033
11.27	6.68092
11.28	6.69736
11.29	6.69769
11.3	6.71315
11.31	6.74276
11.32	6.73158
11.33	6.71348
11.34	6.74835
11.35	6.69243
11.36	6.67335
11.37	6.7194
11.38	6.70625
11.39	6.67269
11.4	6.71052
11.41	6.66282
11.42	6.70592
11.43	6.74473
11.44	6.76809
11.45	6.7
11.46	6.71217
11.47	6.70921
11.48	6.65888
11.49	6.72204
11.5	6.70657
11.51	6.68453
11.52	6.70065
11.53	6.71381
11.54	6.725
11.55	6.68552
11.56	6.72894
11.57	6.74079
11.58	6.68388
11.59	6.67598
11.6	6.62795
11.61	6.69802
11.62	6.68026
11.63	6.66217
11.64	6.70493
11.65	6.61743
11.66	6.7023
11.67	6.71546
11.68	6.64802
11.69	6.66085
11.7	6.70888
11.71	6.69407
11.72	6.67236
11.73	6.74506
11.74	6.71546
11.75	6.68157
11.76	6.72631
11.77	6.69572
11.78	6.65986
11.79	6.71381
11.8	6.69671
11.81	6.67631
11.82	6.62401
11.83	6.70789
11.84	6.69375
11.85	6.64605
11.86	6.72532
11.87	6.6717
11.88	6.63552
11.89	6.65328
11.9	6.71118
11.91	6.73158
11.92	6.70098
11.93	6.64769
11.94	6.65822
11.95	6.71217
11.96	6.66874
11.97	6.67993
11.98	6.69703
11.99	6.69539
12	6.6523
12.01	6.68223
12.02	6.65559
12.03	6.67467
12.04	6.70394
12.05	6.68223
12.06	6.66019
12.07	6.66545
12.08	6.6569
12.09	6.67828
12.1	6.67763
12.11	6.64638
12.12	6.66545
12.13	6.64177
12.14	6.69769
12.15	6.6467
12.16	6.67138
12.17	6.69309
12.18	6.70723
12.19	6.67105
12.2	6.67664
12.21	6.65394
12.22	6.60526
12.23	6.67072
12.24	6.73815
12.25	6.70592
12.26	6.62565
12.27	6.63618
12.28	6.68585
12.29	6.64736
12.3	6.64473
12.31	6.63848
12.32	6.66611
12.33	6.69111
12.34	6.71381
12.35	6.63322
12.36	6.64736
12.37	6.63782
12.38	6.6796
12.39	6.71019
12.4	6.65822
12.41	6.60855
12.42	6.62368
12.43	6.68717
12.44	6.62861
12.45	6.63453
12.46	6.63519
12.47	6.66315
12.48	6.63223
12.49	6.67894
12.5	6.69638
12.51	6.65592
12.52	6.61315
12.53	6.64934
12.54	6.66184
12.55	6.64078
12.56	6.65986
12.57	6.66776
12.58	6.6194
12.59	6.66447
12.6	6.65065
12.61	6.6296
12.62	6.65986
12.63	6.66743
12.64	6.61216
12.65	6.61743
12.66	6.63355
12.67	6.67072
12.68	6.65197
12.69	6.65427
12.7	6.64243
12.71	6.61644
12.72	6.61348
12.73	6.61907
12.74	6.65263
12.75	6.6694
12.76	6.65328
12.77	6.61743
12.78	6.67039
12.79	6.6523
12.8	6.63947
12.81	6.62006
12.82	6.60723
12.83	6.62631
12.84	6.65493
12.85	6.6523
12.86	6.67467
12.87	6.62532
12.88	6.64111
12.89	6.63881
12.9	6.63585
12.91	6.62236
12.92	6.63618
12.93	6.62236
12.94	6.63552
12.95	6.57697
12.96	6.59144
12.97	6.66217
12.98	6.63124
12.99	6.64078
13	6.61874
13.01	6.57828
13.02	6.64539
13.03	6.64901
13.04	6.65888
13.05	6.63881
13.06	6.62861
13.07	6.61019
13.08	6.60394
13.09	6.65855
13.1	6.6296
13.11	6.62302
13.12	6.6046
13.13	6.59045
13.14	6.62828
13.15	6.62006
13.16	6.60526
13.17	6.60493
13.18	6.61809
13.19	6.59572
13.2	6.65328
13.21	6.57729
13.22	6.61085
13.23	6.59111
13.24	6.58552
13.25	6.60394
13.26	6.6319
13.27	6.58914
13.28	6.64078
13.29	6.5944
13.3	6.58552
13.31	6.62006
13.32	6.60887
13.33	6.58815
13.34	6.61315
13.35	6.59572
13.36	6.60591
13.37	6.6319
13.38	6.62401
13.39	6.59637
13.4	6.62565
13.41	6.64835
13.42	6.58651
13.43	6.5796
13.44	6.59769
13.45	6.67236
13.46	6.6342
13.47	6.62532
13.48	6.62927
13.49	6.6273
13.5	6.58881
13.51	6.57499
13.52	6.60361
13.53	6.63026
13.54	6.63091
13.55	6.57795
13.56	6.59012
13.57	6.64506
13.58	6.60032
13.59	6.58256
13.6	6.54407
13.61	6.63749
13.62	6.58223
13.63	6.55591
13.64	6.58552
13.65	6.6092
13.66	6.65098
13.67	6.64309
13.68	6.56216
13.69	6.5569
13.7	6.61282
13.71	6.63848
13.72	6.62894
13.73	6.56907
13.74	6.57104
13.75	6.58322
