"BIO-KINE ASCII FILE"
"_COMMENT"	"MOS-500 Spectrometer"
"_COMMENT"	"Kinetics measurement"
"_COMMENT"	"Y Unit : Volt,  X Unit : s"
"_COMMENT"	"Excitation wavelength : 380 nm"
"_COMMENT"	"Fentes bandwidth =  1 nm"
"_COMMENT"	"HV= 1000V"
"_COMMENT"	"Timebase  1 =  .01 s   5001 pts"
"_SFM"	"SFM-400 /S  Advanced mode"
"_SFM"	"Ratio : S1: 2.5, S2: 0, S3: 0, S4: 1"
"_SFM"	"Content : S1: , S2: , S3: , S4:"
"_SFM"	"Concentration : S1: , S2: , S3: , S4:"
"_SFM"	"Total volume : 209 µl  Flow : 3.5 mL/s"
"_SFM"	"Acquisition start :  10 ms before stop"
"_SFM"	"cuve=FC-15, s1=10 ml , s2=10 ml , s3=10 ml , s4=1.9 ml"
"_UNITX"	"s"
"_UNITY"	"Volt"
"_DELTAX"	0
"_DATA"
1e-300	2.68145
0.01	2.67783
0.02	2.73047
0.03	2.80185
0.04	2.86665
0.05	2.89823
0.06	2.90383
0.07	2.9137
0.08	2.91468
0.09	2.96205
0.1	2.97718
0.11	3.00811
0.12	2.9808
0.13	2.9933
0.14	2.99297
0.15	3.00942
0.16	2.98804
0.17	3.01205
0.18	3.00844
0.19	2.98146
0.2	3.00021
0.21	2.98705
0.22	2.98179
0.23	2.99561
0.24	2.97126
0.25	2.97982
0.26	2.96732
0.27	3.02488
0.28	2.99297
0.29	3.00482
0.3	3.02061
0.31	3.03048
0.32	2.99396
0.33	2.97258
0.34	3.00613
0.35	2.99297
0.36	3.00317
0.37	3.00087
0.38	2.98574
0.39	2.98343
0.4	2.98936
0.41	3.00251
0.42	2.99495
0.43	2.99396
0.44	3.00679
0.45	2.98837
0.46	2.98936
0.47	2.99626
0.48	2.97982
0.49	3.00942
0.5	3.01567
0.51	3.01501
0.52	3.01863
0.53	3.00811
0.54	2.97291
0.55	3.01732
0.56	3.01238
0.57	3.0035
0.58	2.98804
0.59	2.99692
0.6	2.96797
0.61	3.01501
0.62	3.01732
0.63	3.00251
0.64	3.01798
0.65	3.0058
0.66	3.00416
0.67	2.99363
0.68	3.01238
0.69	3.0012
0.7	2.99791
0.71	2.95975
0.72	2.96107
0.73	2.98146
0.74	3.00679
0.75	2.97949
0.76	2.98771
0.77	2.98179
0.78	2.97784
0.79	2.9933
0.8	2.98936
0.81	2.99725
0.82	3.00909
0.83	2.99857
0.84	2.99133
0.85	2.97455
0.86	3.00745
0.87	3.02587
0.88	3.02686
0.89	2.99561
0.9	2.98014
0.91	2.97883
0.92	3.00679
0.93	2.95712
0.94	2.99232
0.95	2.96008
0.96	3.01633
0.97	2.99265
0.98	2.97916
0.99	2.98179
1	2.98541
1.01	3.00449
1.02	3.00186
1.03	3.0012
1.04	2.97949
1.05	2.94495
1.06	3.00844
1.07	3.0114
1.08	2.98771
1.09	2.98607
1.1	2.97521
1.11	2.96205
1.12	2.97587
1.13	2.97982
1.14	2.95021
1.15	2.98376
1.16	3.02357
1.17	2.99297
1.18	2.95021
1.19	2.95679
1.2	2.9989
1.21	2.99396
1.22	2.98574
1.23	2.96041
1.24	2.9887
1.25	2.96666
1.26	2.96337
1.27	2.97521
1.28	2.99133
1.29	2.98738
1.3	2.9808
1.31	2.97192
1.32	2.97817
1.33	3.00284
1.34	2.98311
1.35	2.96074
1.36	2.95712
1.37	2.98804
1.38	2.97126
1.39	2.97093
1.4	2.97817
1.41	2.95975
1.42	2.97521
1.43	3.00745
1.44	2.99429
1.45	2.95251
1.46	2.95679
1.47	2.95712
1.48	2.97225
1.49	2.9581
1.5	2.96567
1.51	2.99001
1.52	2.96699
1.53	2.98705
1.54	2.9785
1.55	2.99791
1.56	3.00449
1.57	2.98376
1.58	2.96139
1.59	2.9456
1.6	2.97784
1.61	2.9637
1.62	2.98146
1.63	2.98442
1.64	2.99001
1.65	2.97192
1.66	2.97554
1.67	2.9387
1.68	2.95284
1.69	2.96534
1.7	2.97291
1.71	2.9808
1.72	2.95613
1.73	2.96304
1.74	2.98146
1.75	2.97686
1.76	2.97159
1.77	2.95712
1.78	2.98442
1.79	2.96633
1.8	2.98014
1.81	2.966
1.82	2.98245
1.83	2.97653
1.84	2.9683
1.85	2.94297
1.86	2.97521
1.87	2.96041
1.88	2.99791
1.89	2.99528
1.9	2.96008
1.91	2.95449
1.92	2.99297
1.93	2.94429
1.94	2.95153
1.95	2.96304
1.96	2.9637
1.97	2.92159
1.98	2.94659
1.99	2.95383
2	2.95054
2.01	2.95942
2.02	2.96764
2.03	2.92981
2.04	2.941
2.05	2.94133
2.06	2.96732
2.07	2.96008
2.08	2.97521
2.09	2.95284
2.1	2.92981
2.11	2.95646
2.12	2.93738
2.13	2.95876
2.14	2.9637
2.15	2.96567
2.16	2.98475
2.17	2.95514
2.18	2.94199
2.19	2.96238
2.2	2.96337
2.21	2.93574
2.22	2.95843
2.23	2.93837
2.24	2.95514
2.25	2.95745
2.26	2.93968
2.27	2.95284
2.28	2.95745
2.29	2.92587
2.3	2.95613
2.31	2.95021
2.32	2.97686
2.33	2.9512
2.34	2.92916
2.35	2.94922
2.36	2.9581
2.37	2.95153
2.38	2.91863
2.39	2.93606
2.4	2.92685
2.41	2.95087
2.42	2.93738
2.43	2.92126
2.44	2.92422
2.45	2.94495
2.46	2.94133
2.47	2.92192
2.48	2.97488
2.49	2.95843
2.5	2.93771
2.51	2.95679
2.52	2.95745
2.53	2.94593
2.54	2.96633
2.55	2.91435
2.56	2.93574
2.57	2.93277
2.58	2.966
2.59	2.93672
2.6	2.96666
2.61	2.94692
2.62	2.93475
2.63	2.92652
2.64	2.93837
2.65	2.93212
2.66	2.92685
2.67	2.95449
2.68	2.95745
2.69	2.93212
2.7	2.95613
2.71	2.95745
2.72	2.95679
2.73	2.91468
2.74	2.93837
2.75	2.93179
2.76	2.94725
2.77	2.96666
2.78	2.92126
2.79	2.91435
2.8	2.94725
2.81	2.95745
2.82	2.93606
2.83	2.95317
2.84	2.9081
2.85	2.92356
2.86	2.91106
2.87	2.92751
2.88	2.93903
2.89	2.96666
2.9	2.95317
2.91	2.93212
2.92	2.9262
2.93	2.94429
2.94	2.96271
2.95	2.92225
2.96	2.93376
2.97	2.96764
2.98	2.97949
2.99	2.95876
3	2.91797
3.01	2.90712
3.02	2.9262
3.03	2.93968
3.04	2.93014
3.05	2.9206
3.06	2.8854
3.07	2.94889
3.08	2.95745
3.09	2.95054
3.1	2.94034
3.11	2.95876
3.12	2.92916
3.13	2.92455
3.14	2.94528
3.15	2.94725
3.16	2.95679
3.17	2.91698
3.18	2.92751
3.19	2.94133
3.2	2.96041
3.21	2.92027
3.22	2.9183
3.23	2.91863
3.24	2.92652
3.25	2.92817
3.26	2.93606
3.27	2.9262
3.28	2.96205
3.29	2.91633
3.3	2.91337
3.31	2.94264
3.32	2.92883
3.33	2.92093
3.34	2.92093
3.35	2.94166
3.36	2.95087
3.37	2.9581
3.38	2.92587
3.39	2.90843
3.4	2.90054
3.41	2.93179
3.42	2.95054
3.43	2.9331
3.44	2.95284
3.45	2.90317
3.46	2.92718
3.47	2.91172
3.48	2.93343
3.49	2.92192
3.5	2.91337
3.51	2.89692
3.52	2.93047
3.53	2.91041
3.54	2.90218
3.55	2.89231
3.56	2.93376
3.57	2.9456
3.58	2.93672
3.59	2.93442
3.6	2.89231
3.61	2.89198
3.62	2.89297
3.63	2.9137
3.64	2.90679
3.65	2.92027
3.66	2.93343
3.67	2.93442
3.68	2.93376
3.69	2.92455
3.7	2.92291
3.71	2.93146
3.72	2.9262
3.73	2.93935
3.74	2.93837
3.75	2.93212
3.76	2.93113
3.77	2.90284
3.78	2.92751
3.79	2.94824
3.8	2.9331
3.81	2.92718
3.82	2.90679
3.83	2.92784
3.84	2.93606
3.85	2.92159
3.86	2.91863
3.87	2.8956
3.88	2.89462
3.89	2.90284
3.9	2.9262
3.91	2.91139
3.92	2.91402
3.93	2.92027
3.94	2.91073
3.95	2.89856
3.96	2.9183
3.97	2.9035
3.98	2.89889
3.99	2.91271
4	2.9081
4.01	2.87883
4.02	2.9285
4.03	2.941
4.04	2.91698
4.05	2.93014
4.06	2.93179
4.07	2.93903
4.08	2.941
4.09	2.92093
4.1	2.88738
4.11	2.89034
4.12	2.916
4.13	2.92817
4.14	2.94791
4.15	2.89659
4.16	2.87455
4.17	2.87948
4.18	2.88804
4.19	2.90613
4.2	2.90613
4.21	2.91764
4.22	2.91666
4.23	2.9058
4.24	2.89889
4.25	2.88738
4.26	2.93639
4.27	2.93935
4.28	2.89593
4.29	2.88508
4.3	2.91205
4.31	2.9512
4.32	2.91468
4.33	2.89692
4.34	2.90317
4.35	2.90514
4.36	2.91435
4.37	2.88639
4.38	2.8683
4.39	2.87619
4.4	2.90909
4.41	2.9387
4.42	2.92554
4.43	2.92389
4.44	2.93672
4.45	2.89363
4.46	2.88639
4.47	2.91205
4.48	2.9262
4.49	2.93014
4.5	2.91567
4.51	2.92685
4.52	2.90843
4.53	2.91172
4.54	2.89988
4.55	2.91205
4.56	2.91337
4.57	2.88573
4.58	2.88837
4.59	2.88179
4.6	2.88212
4.61	2.88442
4.62	2.91304
4.63	2.916
4.64	2.8604
4.65	2.87455
4.66	2.8854
4.67	2.941
4.68	2.93508
4.69	2.8854
4.7	2.89034
4.71	2.87455
4.72	2.84692
4.73	2.86008
4.74	2.87751
4.75	2.91205
4.76	2.88376
4.77	2.91304
4.78	2.88639
4.79	2.89922
4.8	2.87652
4.81	2.88277
4.82	2.92718
4.83	2.94363
4.84	2.91863
4.85	2.89133
4.86	2.86336
4.87	2.90218
4.88	2.89791
4.89	2.89922
4.9	2.8933
4.91	2.9206
4.92	2.86731
4.93	2.89593
4.94	2.90613
4.95	2.90646
4.96	2.90054
4.97	2.90975
4.98	2.89823
4.99	2.89791
5	2.89988
5.01	2.88376
5.02	2.90218
5.03	2.89133
5.04	2.91534
5.05	2.87915
5.06	2.87652
5.07	2.8683
5.08	2.8831
5.09	2.8808
5.1	2.89198
5.11	2.89889
5.12	2.9183
5.13	2.88179
5.14	2.89725
5.15	2.89001
5.16	2.88244
5.17	2.91271
5.18	2.88409
5.19	2.91008
5.2	2.8785
5.21	2.89198
5.22	2.91666
5.23	2.8933
5.24	2.89001
5.25	2.88902
5.26	2.88837
5.27	2.87126
5.28	2.87455
5.29	2.88902
5.3	2.88837
5.31	2.891
5.32	2.89955
5.33	2.92093
5.34	2.87915
5.35	2.91008
5.36	2.88146
5.37	2.88179
5.38	2.89001
5.39	2.87915
5.4	2.86896
5.41	2.88376
5.42	2.88672
5.43	2.85876
5.44	2.90021
5.45	2.88771
5.46	2.88902
5.47	2.89264
5.48	2.89429
5.49	2.89166
5.5	2.86567
5.51	2.89231
5.52	2.84593
5.53	2.89297
5.54	2.88935
5.55	2.89527
5.56	2.84692
5.57	2.86994
5.58	2.85251
5.59	2.90119
5.6	2.92455
5.61	2.88244
5.62	2.85711
5.63	2.86008
5.64	2.88606
5.65	2.85975
5.66	2.891
5.67	2.89593
5.68	2.88902
5.69	2.91468
5.7	2.90054
5.71	2.89264
5.72	2.916
5.73	2.91271
5.74	2.89166
5.75	2.89034
5.76	2.89889
5.77	2.92324
5.78	2.89396
5.79	2.92554
5.8	2.89429
5.81	2.88837
5.82	2.88212
5.83	2.8785
5.84	2.89166
5.85	2.88573
5.86	2.86238
5.87	2.88902
5.88	2.89659
5.89	2.90119
5.9	2.87784
5.91	2.87554
5.92	2.866
5.93	2.87225
5.94	2.90514
5.95	2.88804
5.96	2.90087
5.97	2.8581
5.98	2.86764
5.99	2.88902
6	2.89593
6.01	2.87784
6.02	2.87389
6.03	2.88902
6.04	2.89231
6.05	2.89231
6.06	2.83573
6.07	2.85152
6.08	2.87225
6.09	2.90185
6.1	2.86534
6.11	2.86797
6.12	2.86139
6.13	2.87915
6.14	2.8831
6.15	2.86468
6.16	2.89593
6.17	2.87981
6.18	2.87751
6.19	2.86106
6.2	2.85152
6.21	2.88277
6.22	2.8956
6.23	2.87258
6.24	2.88277
6.25	2.89297
6.26	2.88837
6.27	2.85942
6.28	2.88639
6.29	2.86501
6.3	2.87587
6.31	2.88968
6.32	2.87587
6.33	2.87422
6.34	2.85119
6.35	2.866
6.36	2.89264
6.37	2.86961
6.38	2.87718
6.39	2.85382
6.4	2.89593
6.41	2.86929
6.42	2.86994
6.43	2.88672
6.44	2.86008
6.45	2.86994
6.46	2.88705
6.47	2.87488
6.48	2.88179
6.49	2.87587
6.5	2.88047
6.51	2.84297
6.52	2.85317
6.53	2.85975
6.54	2.88475
6.55	2.87258
6.56	2.90087
6.57	2.87718
6.58	2.8729
6.59	2.89363
6.6	2.83409
6.61	2.89791
6.62	2.91501
6.63	2.87093
6.64	2.84264
6.65	2.88014
6.66	2.85744
6.67	2.87587
6.68	2.87225
6.69	2.91041
6.7	2.93837
6.71	2.89231
6.72	2.85448
6.73	2.87784
6.74	2.87488
6.75	2.86139
6.76	2.88475
6.77	2.89823
6.78	2.87488
6.79	2.84165
6.8	2.85843
6.81	2.85448
6.82	2.86304
6.83	2.8808
6.84	2.87389
6.85	2.84725
6.86	2.82619
6.87	2.84527
6.88	2.85711
6.89	2.86073
6.9	2.87554
6.91	2.87027
6.92	2.84955
6.93	2.86797
6.94	2.86336
6.95	2.88738
6.96	2.88606
6.97	2.88212
6.98	2.8933
6.99	2.89363
7	2.82915
7.01	2.85021
7.02	2.89955
7.03	2.87422
7.04	2.86336
7.05	2.82751
7.06	2.86205
7.07	2.88212
7.08	2.86567
7.09	2.85711
7.1	2.86304
7.11	2.82521
7.12	2.84264
7.13	2.84988
7.14	2.88475
7.15	2.89988
7.16	2.86501
7.17	2.87356
7.18	2.86369
7.19	2.88442
7.2	2.87225
7.21	2.86468
7.22	2.86633
7.23	2.90679
7.24	2.86008
7.25	2.86534
7.26	2.88244
7.27	2.86238
7.28	2.88376
7.29	2.89231
7.3	2.88968
7.31	2.86008
7.32	2.88343
7.33	2.89001
7.34	2.85744
7.35	2.87488
7.36	2.85909
7.37	2.84396
7.38	2.88146
7.39	2.86369
7.4	2.87422
7.41	2.85448
7.42	2.8183
7.43	2.84001
7.44	2.85119
7.45	2.85777
7.46	2.86369
7.47	2.89791
7.48	2.84725
7.49	2.85547
7.5	2.86633
7.51	2.85284
7.52	2.85152
7.53	2.87159
7.54	2.86468
7.55	2.87455
7.56	2.87126
7.57	2.86994
7.58	2.86501
7.59	2.86896
7.6	2.85744
7.61	2.88277
7.62	2.86106
7.63	2.85119
7.64	2.88573
7.65	2.89856
7.66	2.86073
7.67	2.85317
7.68	2.84692
7.69	2.84988
7.7	2.87817
7.71	2.8785
7.72	2.87126
7.73	2.8581
7.74	2.85481
7.75	2.84692
7.76	2.84198
7.77	2.83211
7.78	2.86501
7.79	2.85843
7.8	2.84626
7.81	2.86929
7.82	2.86106
7.83	2.86567
7.84	2.85843
7.85	2.84396
7.86	2.87685
7.87	2.84757
7.88	2.88869
7.89	2.85251
7.9	2.82356
7.91	2.86633
7.92	2.8558
7.93	2.87883
7.94	2.85218
7.95	2.83475
7.96	2.84823
7.97	2.86863
7.98	2.88804
7.99	2.8683
8	2.87883
8.01	2.86238
8.02	2.83771
8.03	2.84396
8.04	2.87126
8.05	2.86896
8.06	2.85054
8.07	2.84955
8.08	2.85054
8.09	2.84132
8.1	2.86336
8.11	2.83409
8.12	2.866
8.13	2.85284
8.14	2.83738
8.15	2.81698
8.16	2.84231
8.17	2.85382
8.18	2.83968
8.19	2.84889
8.2	2.86764
8.21	2.86205
8.22	2.81172
8.23	2.82488
8.24	2.84659
8.25	2.8581
8.26	2.83211
8.27	2.83902
8.28	2.85021
8.29	2.81205
8.3	2.84231
8.31	2.85382
8.32	2.81961
8.33	2.83244
8.34	2.86961
8.35	2.86304
8.36	2.83869
8.37	2.8354
8.38	2.8479
8.39	2.84231
8.4	2.87323
8.41	2.88705
8.42	2.85481
8.43	2.85086
8.44	2.86205
8.45	2.8535
8.46	2.83902
8.47	2.85909
8.48	2.85942
8.49	2.84132
8.5	2.83277
8.51	2.8354
8.52	2.84461
8.53	2.86073
8.54	2.87258
8.55	2.86961
8.56	2.85646
8.57	2.88343
8.58	2.87323
8.59	2.84001
8.6	2.82981
8.61	2.83211
8.62	2.84494
8.63	2.85448
8.64	2.84889
8.65	2.86238
8.66	2.84593
8.67	2.85218
8.68	2.86073
8.69	2.87422
8.7	2.85086
8.71	2.86304
8.72	2.82521
8.73	2.84922
8.74	2.86698
8.75	2.8331
8.76	2.84363
8.77	2.86073
8.78	2.83113
8.79	2.84231
8.8	2.85514
8.81	2.83277
8.82	2.84067
8.83	2.87948
8.84	2.87225
8.85	2.84527
8.86	2.85711
8.87	2.88409
8.88	2.84955
8.89	2.84363
8.9	2.83211
8.91	2.81468
8.92	2.82323
8.93	2.83442
8.94	2.8285
8.95	2.81599
8.96	2.85054
8.97	2.83705
8.98	2.82224
8.99	2.84461
9	2.84725
9.01	2.86698
9.02	2.8354
9.03	2.84363
9.04	2.84001
9.05	2.84001
9.06	2.8535
9.07	2.87126
9.08	2.83803
9.09	2.84692
9.1	2.84988
9.11	2.85415
9.12	2.87356
9.13	2.83146
9.14	2.81731
9.15	2.82882
9.16	2.8785
9.17	2.84955
9.18	2.83935
9.19	2.86567
9.2	2.8558
9.21	2.84988
9.22	2.8331
9.23	2.83869
9.24	2.87652
9.25	2.86797
9.26	2.86139
9.27	2.85415
9.28	2.8229
9.29	2.82553
9.3	2.80843
9.31	2.85185
9.32	2.8331
9.33	2.83606
9.34	2.8456
9.35	2.83705
9.36	2.83047
9.37	2.8479
9.38	2.83014
9.39	2.8535
9.4	2.83771
9.41	2.85251
9.42	2.83507
9.43	2.84856
9.44	2.84692
9.45	2.84132
9.46	2.85448
9.47	2.83935
9.48	2.80711
9.49	2.82586
9.5	2.81764
9.51	2.82652
9.52	2.85942
9.53	2.87521
9.54	2.84922
9.55	2.83672
9.56	2.8308
9.57	2.82586
9.58	2.83639
9.59	2.80876
9.6	2.83507
9.61	2.8331
9.62	2.83442
9.63	2.81106
9.64	2.83836
9.65	2.83803
9.66	2.81599
9.67	2.87587
9.68	2.86665
9.69	2.83277
9.7	2.8081
9.71	2.82093
9.72	2.85152
9.73	2.82224
9.74	2.81238
9.75	2.85876
9.76	2.85448
9.77	2.82586
9.78	2.84955
9.79	2.81928
9.8	2.80481
9.81	2.81665
9.82	2.8285
9.83	2.82455
9.84	2.85086
9.85	2.86402
9.86	2.85711
9.87	2.85218
9.88	2.86534
9.89	2.83902
9.9	2.81698
9.91	2.82751
9.92	2.87258
9.93	2.84955
9.94	2.84165
9.95	2.82356
9.96	2.79955
9.97	2.81468
9.98	2.81238
9.99	2.8433
10	2.82455
10.01	2.83672
10.02	2.82751
10.03	2.82488
10.04	2.82652
10.05	2.82389
10.06	2.83376
10.07	2.8206
10.08	2.84231
10.09	2.83869
10.1	2.83178
10.11	2.82488
10.12	2.83902
10.13	2.83869
10.14	2.83146
10.15	2.83869
10.16	2.8354
10.17	2.80777
10.18	2.83442
10.19	2.84396
10.2	2.83146
10.21	2.82652
10.22	2.82027
10.23	2.84856
10.24	2.82586
10.25	2.82455
10.26	2.83968
10.27	2.83606
10.28	2.81534
10.29	2.82422
10.3	2.80382
10.31	2.85975
10.32	2.8456
10.33	2.82981
10.34	2.81665
10.35	2.84659
10.36	2.82948
10.37	2.80547
10.38	2.80415
10.39	2.83705
10.4	2.8002
10.41	2.81139
10.42	2.79099
10.43	2.82488
10.44	2.83836
10.45	2.86271
10.46	2.82093
10.47	2.8433
10.48	2.84527
10.49	2.80942
10.5	2.82192
10.51	2.8308
10.52	2.82685
10.53	2.82159
10.54	2.82455
10.55	2.8206
10.56	2.78639
10.57	2.81896
10.58	2.85251
10.59	2.82323
10.6	2.83178
10.61	2.80777
10.62	2.83573
10.63	2.8229
10.64	2.81106
10.65	2.80909
10.66	2.79099
10.67	2.84692
10.68	2.85021
10.69	2.81139
10.7	2.81665
10.71	2.82422
10.72	2.83014
10.73	2.82751
10.74	2.81106
10.75	2.80547
10.76	2.81731
10.77	2.82981
10.78	2.82356
10.79	2.81435
10.8	2.82323
10.81	2.79461
10.82	2.80547
10.83	2.79527
10.84	2.84001
10.85	2.83836
10.86	2.84231
10.87	2.82652
10.88	2.82093
10.89	2.8433
10.9	2.83343
10.91	2.85054
10.92	2.82619
10.93	2.86435
10.94	2.81172
10.95	2.82356
10.96	2.84067
10.97	2.81468
10.98	2.84889
10.99	2.83803
11	2.85448
11.01	2.84396
11.02	2.83705
11.03	2.82718
11.04	2.8285
11.05	2.81369
11.06	2.83639
11.07	2.79856
11.08	2.78507
11.09	2.83639
11.1	2.84067
11.11	2.84527
11.12	2.80415
11.13	2.82981
11.14	2.82224
11.15	2.81336
11.16	2.84034
11.17	2.85415
11.18	2.82093
11.19	2.80185
11.2	2.81336
11.21	2.81599
11.22	2.79922
11.23	2.80086
11.24	2.82027
11.25	2.83277
11.26	2.84659
11.27	2.79527
11.28	2.80251
11.29	2.82192
11.3	2.83968
11.31	2.85218
11.32	2.83211
11.33	2.84297
11.34	2.84165
11.35	2.84494
11.36	2.81698
11.37	2.83113
11.38	2.83409
11.39	2.81961
11.4	2.81928
11.41	2.79823
11.42	2.82981
11.43	2.84889
11.44	2.80086
11.45	2.77948
11.46	2.80053
11.47	2.80645
11.48	2.80777
11.49	2.79494
11.5	2.81863
11.51	2.81369
11.52	2.79428
11.53	2.81205
11.54	2.81797
11.55	2.80152
11.56	2.80415
11.57	2.83211
11.58	2.83113
11.59	2.81961
11.6	2.83475
11.61	2.81073
11.62	2.841
11.63	2.82784
11.64	2.84264
11.65	2.79099
11.66	2.80218
11.67	2.82586
11.68	2.78409
11.69	2.8206
11.7	2.82553
11.71	2.80152
11.72	2.841
11.73	2.80284
11.74	2.80909
11.75	2.84034
11.76	2.82981
11.77	2.84067
11.78	2.80284
11.79	2.81797
11.8	2.81073
11.81	2.78409
11.82	2.79692
11.83	2.81238
11.84	2.82192
11.85	2.83014
11.86	2.81139
11.87	2.82192
11.88	2.81534
11.89	2.80777
11.9	2.83211
11.91	2.82586
11.92	2.82586
11.93	2.82257
11.94	2.84001
11.95	2.79264
11.96	2.80317
11.97	2.81764
11.98	2.83869
11.99	2.82586
12	2.81238
12.01	2.81928
12.02	2.81797
12.03	2.79395
12.04	2.81205
12.05	2.81336
12.06	2.85711
12.07	2.8308
12.08	2.79626
12.09	2.74198
12.1	2.7854
12.11	2.83178
12.12	2.83376
12.13	2.85284
12.14	2.80843
12.15	2.81863
12.16	2.8206
12.17	2.78409
12.18	2.81698
12.19	2.84165
12.2	2.83869
12.21	2.81534
12.22	2.80613
12.23	2.77816
12.24	2.81073
12.25	2.82586
12.26	2.81205
12.27	2.80251
12.28	2.81007
12.29	2.82027
12.3	2.83475
12.31	2.83935
12.32	2.8683
12.33	2.84264
12.34	2.83836
12.35	2.81698
12.36	2.8104
12.37	2.79363
12.38	2.79922
12.39	2.8206
12.4	2.82323
12.41	2.83146
12.42	2.85021
12.43	2.85185
12.44	2.83803
12.45	2.83047
12.46	2.81402
12.47	2.80876
12.48	2.82652
12.49	2.8331
12.5	2.83376
12.51	2.81567
12.52	2.82126
12.53	2.80053
12.54	2.82586
12.55	2.83672
12.56	2.80678
12.57	2.84264
12.58	2.83475
12.59	2.8081
12.6	2.82422
12.61	2.80382
12.62	2.85119
12.63	2.85613
12.64	2.83507
12.65	2.81369
12.66	2.82422
12.67	2.8331
12.68	2.78441
12.69	2.79165
12.7	2.81007
12.71	2.85843
12.72	2.81961
12.73	2.78014
12.74	2.76731
12.75	2.80481
12.76	2.8558
12.77	2.83014
12.78	2.83211
12.79	2.83672
12.8	2.79264
12.81	2.80218
12.82	2.82356
12.83	2.84198
12.84	2.79922
12.85	2.79494
12.86	2.80185
12.87	2.8229
12.88	2.84198
12.89	2.82455
12.9	2.83244
12.91	2.81961
12.92	2.7604
12.93	2.80481
12.94	2.82817
12.95	2.8683
12.96	2.85086
12.97	2.81863
12.98	2.7831
12.99	2.80481
13	2.82915
13.01	2.80942
13.02	2.84231
13.03	2.84231
13.04	2.83968
13.05	2.82455
13.06	2.78902
13.07	2.80645
13.08	2.81402
13.09	2.79264
13.1	2.76501
13.11	2.81172
13.12	2.82882
13.13	2.83047
13.14	2.83475
13.15	2.78639
13.16	2.79066
13.17	2.79494
13.18	2.82586
13.19	2.78836
13.2	2.7979
13.21	2.80218
13.22	2.82915
13.23	2.83146
13.24	2.81007
13.25	2.80284
13.26	2.83014
13.27	2.83113
13.28	2.83475
13.29	2.8433
13.3	2.8002
13.31	2.80974
13.32	2.80218
13.33	2.80119
13.34	2.83639
13.35	2.83705
13.36	2.81106
13.37	2.79066
13.38	2.78376
13.39	2.79264
13.4	2.80678
13.41	2.79823
13.42	2.80119
13.43	2.81632
13.44	2.83803
13.45	2.83902
13.46	2.80711
13.47	2.83409
13.48	2.81106
13.49	2.81435
13.5	2.80053
13.51	2.8002
13.52	2.78935
13.53	2.81501
13.54	2.82521
13.55	2.79988
13.56	2.79626
13.57	2.81599
13.58	2.80251
13.59	2.80119
13.6	2.78113
13.61	2.7956
13.62	2.79198
13.63	2.81238
13.64	2.80777
13.65	2.84165
13.66	2.81139
13.67	2.80678
13.68	2.81896
13.69	2.81271
13.7	2.81238
13.71	2.77323
13.72	2.79231
13.73	2.8183
13.74	2.78376
