"BIO-KINE ASCII FILE"
"_COMMENT"	"MOS-500 Spectrometer"
"_COMMENT"	"Kinetics measurement"
"_COMMENT"	"Y Unit : Volt,  X Unit : s"
"_COMMENT"	"Excitation wavelength : 380 nm"
"_COMMENT"	"Fentes bandwidth =  1 nm"
"_COMMENT"	"HV= 1000V"
"_COMMENT"	"Timebase  1 =  .01 s   5001 pts"
"_SFM"	"SFM-400 /S  Advanced mode"
"_SFM"	"Ratio : S1: 2.5, S2: 0, S3: 0, S4: 1"
"_SFM"	"Content : S1: , S2: , S3: , S4:"
"_SFM"	"Concentration : S1: , S2: , S3: , S4:"
"_SFM"	"Total volume : 209 µl  Flow : 3.5 mL/s"
"_SFM"	"Acquisition start :  10 ms before stop"
"_SFM"	"cuve=FC-15, s1=10 ml , s2=10 ml , s3=10 ml , s4=1.9 ml"
"_UNITX"	"s"
"_UNITY"	"Volt"
"_DELTAX"	0
"_DATA"
1e-300	2.23538
0.01	3.14199
0.02	2.49855
0.03	2.21236
0.04	2.24032
0.05	2.2413
0.06	2.26565
0.07	2.23867
0.08	2.25545
0.09	2.24821
0.1	2.24098
0.11	2.26269
0.12	2.25907
0.13	2.24361
0.14	2.2719
0.15	2.23604
0.16	2.23736
0.17	2.25545
0.18	2.24196
0.19	2.24657
0.2	2.23242
0.21	2.25545
0.22	2.23637
0.23	2.28078
0.24	2.2719
0.25	2.24361
0.26	2.2538
0.27	2.24624
0.28	2.21334
0.29	2.24887
0.3	2.23374
0.31	2.24525
0.32	2.24394
0.33	2.23999
0.34	2.24196
0.35	2.24624
0.36	2.25611
0.37	2.25183
0.38	2.26729
0.39	2.24723
0.4	2.25709
0.41	2.24887
0.42	2.21959
0.43	2.24657
0.44	2.2344
0.45	2.25216
0.46	2.24854
0.47	2.24163
0.48	2.23242
0.49	2.2242
0.5	2.24262
0.51	2.22387
0.52	2.24229
0.53	2.24427
0.54	2.22025
0.55	2.23275
0.56	2.2413
0.57	2.27321
0.58	2.25084
0.59	2.26071
0.6	2.2538
0.61	2.24723
0.62	2.25611
0.63	2.2469
0.64	2.26565
0.65	2.22617
0.66	2.25907
0.67	2.28242
0.68	2.27091
0.69	2.26795
0.7	2.25677
0.71	2.24427
0.72	2.25709
0.73	2.24394
0.74	2.23933
0.75	2.21795
0.76	2.23407
0.77	2.24525
0.78	2.24723
0.79	2.24459
0.8	2.2765
0.81	2.25117
0.82	2.26861
0.83	2.23505
0.84	2.23966
0.85	2.25216
0.86	2.28078
0.87	2.29558
0.88	2.26696
0.89	2.24591
0.9	2.27552
0.91	2.2821
0.92	2.2413
0.93	2.24098
0.94	2.23834
0.95	2.25907
0.96	2.28045
0.97	2.23736
0.98	2.26959
0.99	2.24755
1	2.26236
1.01	2.27979
1.02	2.26466
1.03	2.25973
1.04	2.24262
1.05	2.22946
1.06	2.2719
1.07	2.25677
1.08	2.25808
1.09	2.27025
1.1	2.25183
1.11	2.25578
1.12	2.26236
1.13	2.27288
1.14	2.26006
1.15	2.27321
1.16	2.29262
1.17	2.26762
1.18	2.26367
1.19	2.2594
1.2	2.28374
1.21	2.25019
1.22	2.21861
1.23	2.23966
1.24	2.2288
1.25	2.24262
1.26	2.23505
1.27	2.25742
1.28	2.22453
1.29	2.25315
1.3	2.27223
1.31	2.25183
1.32	2.27157
1.33	2.24361
1.34	2.24854
1.35	2.24986
1.36	2.23111
1.37	2.289
1.38	2.28538
1.39	2.24953
1.4	2.28802
1.41	2.24427
1.42	2.24624
1.43	2.27256
1.44	2.26828
1.45	2.25084
1.46	2.21137
1.47	2.27979
1.48	2.27486
1.49	2.2492
1.5	2.26696
1.51	2.25644
1.52	2.24953
1.53	2.25677
1.54	2.2515
1.55	2.28538
1.56	2.26828
1.57	2.24986
1.58	2.23966
1.59	2.25512
1.6	2.28736
1.61	2.27617
1.62	2.27716
1.63	2.29131
1.64	2.25282
1.65	2.28144
1.66	2.26795
1.67	2.26006
1.68	2.25512
1.69	2.25512
1.7	2.23736
1.71	2.25907
1.72	2.29065
1.73	2.24394
1.74	2.27256
1.75	2.26927
1.76	2.26236
1.77	2.25808
1.78	2.23571
1.79	2.23769
1.8	2.27256
1.81	2.24986
1.82	2.27716
1.83	2.24427
1.84	2.27288
1.85	2.28867
1.86	2.24854
1.87	2.24525
1.88	2.24788
1.89	2.27749
1.9	2.26269
1.91	2.25117
1.92	2.26038
1.93	2.27058
1.94	2.26104
1.95	2.2538
1.96	2.23341
1.97	2.23176
1.98	2.24328
1.99	2.24821
2	2.26269
2.01	2.25183
2.02	2.25249
2.03	2.26631
2.04	2.25084
2.05	2.26269
2.06	2.28045
2.07	2.28835
2.08	2.25446
2.09	2.26104
2.1	2.26631
2.11	2.26696
2.12	2.26696
2.13	2.28637
2.14	2.2594
2.15	2.24624
2.16	2.23012
2.17	2.26433
2.18	2.26203
2.19	2.26071
2.2	2.2515
2.21	2.25315
2.22	2.25677
2.23	2.24887
2.24	2.24657
2.25	2.24591
2.26	2.28111
2.27	2.29098
2.28	2.26006
2.29	2.26367
2.3	2.26006
2.31	2.27749
2.32	2.22519
2.33	2.2742
2.34	2.28144
2.35	2.28078
2.36	2.24459
2.37	2.26038
2.38	2.26137
2.39	2.26203
2.4	2.27321
2.41	2.24196
2.42	2.24394
2.43	2.25512
2.44	2.24328
2.45	2.26104
2.46	2.23703
2.47	2.2617
2.48	2.25578
2.49	2.25249
2.5	2.2719
2.51	2.26696
2.52	2.27486
2.53	2.2742
2.54	2.27288
2.55	2.2492
2.56	2.25644
2.57	2.26729
2.58	2.2719
2.59	2.2992
2.6	2.29196
2.61	2.23407
2.62	2.22716
2.63	2.22584
2.64	2.23473
2.65	2.2969
2.66	2.28012
2.67	2.24657
2.68	2.27585
2.69	2.27979
2.7	2.25348
2.71	2.23407
2.72	2.25117
2.73	2.27256
2.74	2.239
2.75	2.2538
2.76	2.26894
2.77	2.27025
2.78	2.26302
2.79	2.24295
2.8	2.24657
2.81	2.26334
2.82	2.24459
2.83	2.24492
2.84	2.24163
2.85	2.24196
2.86	2.25216
2.87	2.28045
2.88	2.24394
2.89	2.26894
2.9	2.25183
2.91	2.25808
2.92	2.24361
2.93	2.25545
2.94	2.2117
2.95	2.25117
2.96	2.26334
2.97	2.26071
2.98	2.25315
2.99	2.23209
3	2.26598
3.01	2.25742
3.02	2.26269
3.03	2.27058
3.04	2.27256
3.05	2.27716
3.06	2.24032
3.07	2.2821
3.08	2.24558
3.09	2.25183
3.1	2.26762
3.11	2.28736
3.12	2.27913
3.13	2.26302
3.14	2.27716
3.15	2.27256
3.16	2.28111
3.17	2.2742
3.18	2.25578
3.19	2.2538
3.2	2.2742
3.21	2.26236
3.22	2.26729
3.23	2.28637
3.24	2.28933
3.25	2.264
3.26	2.24065
3.27	2.26038
3.28	2.27124
3.29	2.29361
3.3	2.24986
3.31	2.24854
3.32	2.25907
3.33	2.25052
3.34	2.26269
3.35	2.29756
3.36	2.3015
3.37	2.25512
3.38	2.25479
3.39	2.27519
3.4	2.26992
3.41	2.27025
3.42	2.26334
3.43	2.26269
3.44	2.26696
3.45	2.27815
3.46	2.26696
3.47	2.25874
3.48	2.26367
3.49	2.27486
3.5	2.27288
3.51	2.24723
3.52	2.25841
3.53	2.24657
3.54	2.24953
3.55	2.25216
3.56	2.2821
3.57	2.26795
3.58	2.23473
3.59	2.23834
3.6	2.25742
3.61	2.27288
3.62	2.28374
3.63	2.26334
3.64	2.26302
3.65	2.27025
3.66	2.24032
3.67	2.26038
3.68	2.26696
3.69	2.24624
3.7	2.24229
3.71	2.25775
3.72	2.28703
3.73	2.24887
3.74	2.24986
3.75	2.24394
3.76	2.24295
3.77	2.24854
3.78	2.29295
3.79	2.27453
3.8	2.26828
3.81	2.25808
3.82	2.27058
3.83	2.24887
3.84	2.25874
3.85	2.27058
3.86	2.24229
3.87	2.26137
3.88	2.24953
3.89	2.24328
3.9	2.28538
3.91	2.27223
3.92	2.25775
3.93	2.25348
3.94	2.24854
3.95	2.28177
3.96	2.24492
3.97	2.26302
3.98	2.29098
3.99	2.2719
4	2.24591
4.01	2.25052
4.02	2.25709
4.03	2.26663
4.04	2.24394
4.05	2.2492
4.06	2.26927
4.07	2.25775
4.08	2.24427
4.09	2.26203
4.1	2.25479
4.11	2.24821
4.12	2.26236
4.13	2.23538
4.14	2.25578
4.15	2.24854
4.16	2.27058
4.17	2.26104
4.18	2.24525
4.19	2.25249
4.2	2.22091
4.21	2.27881
4.22	2.27782
4.23	2.26104
4.24	2.26269
4.25	2.25479
4.26	2.23933
4.27	2.26598
4.28	2.2765
4.29	2.28538
4.3	2.24098
4.31	2.26729
4.32	2.28736
4.33	2.2469
4.34	2.24427
4.35	2.25512
4.36	2.26499
4.37	2.23078
4.38	2.24821
4.39	2.25578
4.4	2.25413
4.41	2.25019
4.42	2.26203
4.43	2.23703
4.44	2.24788
4.45	2.27058
4.46	2.26302
4.47	2.27223
4.48	2.26696
4.49	2.24624
4.5	2.26071
4.51	2.3015
4.52	2.2742
4.53	2.27848
4.54	2.26959
4.55	2.26236
4.56	2.25578
4.57	2.27354
4.58	2.27749
4.59	2.28999
4.6	2.27387
4.61	2.27716
4.62	2.25117
4.63	2.23637
4.64	2.24262
4.65	2.25874
4.66	2.26631
4.67	2.24262
4.68	2.25446
4.69	2.27157
4.7	2.26071
4.71	2.24328
4.72	2.24032
4.73	2.25216
4.74	2.25413
4.75	2.24394
4.76	2.24986
4.77	2.26433
4.78	2.27486
4.79	2.30907
4.8	2.29032
4.81	2.24788
4.82	2.26532
4.83	2.27716
4.84	2.2821
4.85	2.25084
4.86	2.28506
4.87	2.25973
4.88	2.24328
4.89	2.21926
4.9	2.25249
4.91	2.28045
4.92	2.27124
4.93	2.2492
4.94	2.2765
4.95	2.2515
4.96	2.26927
4.97	2.28604
4.98	2.23571
4.99	2.27223
5	2.27091
5.01	2.24854
5.02	2.24723
5.03	2.27025
5.04	2.25052
5.05	2.27519
5.06	2.26729
5.07	2.24723
5.08	2.24953
5.09	2.29098
5.1	2.26598
5.11	2.26334
5.12	2.27979
5.13	2.2742
5.14	2.28966
5.15	2.26302
5.16	2.25775
5.17	2.26861
5.18	2.2844
5.19	2.23999
5.2	2.2538
5.21	2.25611
5.22	2.24229
5.23	2.27256
5.24	2.28867
5.25	2.26927
5.26	2.24492
5.27	2.2594
5.28	2.28242
5.29	2.25578
5.3	2.24558
5.31	2.25742
5.32	2.25512
5.33	2.24098
5.34	2.23834
5.35	2.23933
5.36	2.25709
5.37	2.27354
5.38	2.26631
5.39	2.24657
5.4	2.27617
5.41	2.26992
5.42	2.26038
5.43	2.26631
5.44	2.25183
5.45	2.25611
5.46	2.26861
5.47	2.27881
5.48	2.28275
5.49	2.25052
5.5	2.26795
5.51	2.26302
5.52	2.28144
5.53	2.27617
5.54	2.28604
5.55	2.29164
5.56	2.30808
5.57	2.25611
5.58	2.21795
5.59	2.25413
5.6	2.26532
5.61	2.24723
5.62	2.25841
5.63	2.25611
5.64	2.24558
5.65	2.264
5.66	2.24821
5.67	2.28012
5.68	2.26334
5.69	2.25216
5.7	2.24492
5.71	2.26861
5.72	2.23769
5.73	2.25084
5.74	2.25973
5.75	2.25677
5.76	2.24328
5.77	2.26861
5.78	2.26861
5.79	2.23769
5.8	2.2617
5.81	2.25052
5.82	2.25611
5.83	2.24788
5.84	2.26269
5.85	2.25775
5.86	2.25578
5.87	2.28374
5.88	2.28999
5.89	2.28374
5.9	2.27256
5.91	2.26433
5.92	2.25742
5.93	2.25315
5.94	2.23834
5.95	2.25611
5.96	2.26631
5.97	2.2413
5.98	2.23769
5.99	2.27486
6	2.28407
6.01	2.26631
6.02	2.27091
6.03	2.24821
6.04	2.26861
6.05	2.24328
6.06	2.28703
6.07	2.28045
6.08	2.25282
6.09	2.26861
6.1	2.25775
6.11	2.26269
6.12	2.24986
6.13	2.264
6.14	2.24788
6.15	2.2617
6.16	2.25808
6.17	2.239
6.18	2.24032
6.19	2.27025
6.2	2.25183
6.21	2.24558
6.22	2.23769
6.23	2.25742
6.24	2.26071
6.25	2.29098
6.26	2.25578
6.27	2.26499
6.28	2.27683
6.29	2.25249
6.3	2.25611
6.31	2.24394
6.32	2.26236
6.33	2.25446
6.34	2.25677
6.35	2.26302
6.36	2.25479
6.37	2.27288
6.38	2.26038
6.39	2.24591
6.4	2.26565
6.41	2.26696
6.42	2.25973
6.43	2.25709
6.44	2.25578
6.45	2.27387
6.46	2.27552
6.47	2.25479
6.48	2.24854
6.49	2.23867
6.5	2.25512
6.51	2.27124
6.52	2.27157
6.53	2.27683
6.54	2.26104
6.55	2.2719
6.56	2.28275
6.57	2.25315
6.58	2.25841
6.59	2.25019
6.6	2.26236
6.61	2.26729
6.62	2.2469
6.63	2.25019
6.64	2.27782
6.65	2.25446
6.66	2.27288
6.67	2.26236
6.68	2.2719
6.69	2.28637
6.7	2.28012
6.71	2.25611
6.72	2.28407
6.73	2.27946
6.74	2.26663
6.75	2.26203
6.76	2.25183
6.77	2.23703
6.78	2.24163
6.79	2.24459
6.8	2.27946
6.81	2.26795
6.82	2.24032
6.83	2.2617
6.84	2.27946
6.85	2.24953
6.86	2.24591
6.87	2.25216
6.88	2.24394
6.89	2.23209
6.9	2.26334
6.91	2.26762
6.92	2.239
6.93	2.28473
6.94	2.27321
6.95	2.27848
6.96	2.27946
6.97	2.24788
6.98	2.25117
6.99	2.29131
7	2.23933
7.01	2.24328
7.02	2.26006
7.03	2.24427
7.04	2.26104
7.05	2.27782
7.06	2.27453
7.07	2.23538
7.08	2.26729
7.09	2.28078
7.1	2.27782
7.11	2.26532
7.12	2.24394
7.13	2.24624
7.14	2.26367
7.15	2.28703
7.16	2.25446
7.17	2.22979
7.18	2.25183
7.19	2.21861
7.2	2.26663
7.21	2.26959
7.22	2.2617
7.23	2.22025
7.24	2.24262
7.25	2.27387
7.26	2.25084
7.27	2.26762
7.28	2.24295
7.29	2.24459
7.3	2.25775
7.31	2.2594
7.32	2.2719
7.33	2.28275
7.34	2.25775
7.35	2.25479
7.36	2.28835
7.37	2.29624
7.38	2.23834
7.39	2.25479
7.4	2.27979
7.41	2.28078
7.42	2.25709
7.43	2.28506
7.44	2.28999
7.45	2.26532
7.46	2.26631
7.47	2.25282
7.48	2.23703
7.49	2.26367
7.5	2.25446
7.51	2.2594
7.52	2.26006
7.53	2.26631
7.54	2.26499
7.55	2.26334
7.56	2.24657
7.57	2.27782
7.58	2.28341
7.59	2.264
7.6	2.23834
7.61	2.26466
7.62	2.23538
7.63	2.26433
7.64	2.26433
7.65	2.28078
7.66	2.26696
7.67	2.2742
7.68	2.29065
7.69	2.26104
7.7	2.25052
7.71	2.27848
7.72	2.28506
7.73	2.25742
7.74	2.28769
7.75	2.2742
7.76	2.24953
7.77	2.26663
7.78	2.25709
7.79	2.27091
7.8	2.25183
7.81	2.26828
7.82	2.27782
7.83	2.29098
7.84	2.27979
7.85	2.27223
7.86	2.27124
7.87	2.29098
7.88	2.26795
7.89	2.27354
7.9	2.27453
7.91	2.27881
7.92	2.27946
7.93	2.27881
7.94	2.25282
7.95	2.25052
7.96	2.27058
7.97	2.2594
7.98	2.26038
7.99	2.27157
8	2.27913
8.01	2.25611
8.02	2.25841
8.03	2.27946
8.04	2.24065
8.05	2.23407
8.06	2.2469
8.07	2.25808
8.08	2.22716
8.09	2.25315
8.1	2.27815
8.11	2.26598
8.12	2.25052
8.13	2.27288
8.14	2.22716
8.15	2.21959
8.16	2.25677
8.17	2.26696
8.18	2.25183
8.19	2.2946
8.2	2.29032
8.21	2.25808
8.22	2.26104
8.23	2.27354
8.24	2.27881
8.25	2.26137
8.26	2.27881
8.27	2.24788
8.28	2.26729
8.29	2.26927
8.3	2.28604
8.31	2.25512
8.32	2.27617
8.33	2.26696
8.34	2.26466
8.35	2.25249
8.36	2.26992
8.37	2.28012
8.38	2.26006
8.39	2.27617
8.4	2.27617
8.41	2.28473
8.42	2.28111
8.43	2.26038
8.44	2.2594
8.45	2.2515
8.46	2.24624
8.47	2.26466
8.48	2.2719
8.49	2.25249
8.5	2.27848
8.51	2.25348
8.52	2.23407
8.53	2.23275
8.54	2.23966
8.55	2.27124
8.56	2.24657
8.57	2.25578
8.58	2.28473
8.59	2.24953
8.6	2.28571
8.61	2.26203
8.62	2.26104
8.63	2.27617
8.64	2.23999
8.65	2.22453
8.66	2.26203
8.67	2.27387
8.68	2.24459
8.69	2.23801
8.7	2.24953
8.71	2.26302
8.72	2.2413
8.73	2.2242
8.74	2.25183
8.75	2.24788
8.76	2.25249
8.77	2.25084
8.78	2.26269
8.79	2.25446
8.8	2.25742
8.81	2.25348
8.82	2.23769
8.83	2.24394
8.84	2.26006
8.85	2.25611
8.86	2.29558
8.87	2.26696
8.88	2.23999
8.89	2.24394
8.9	2.24953
8.91	2.23012
8.92	2.24558
8.93	2.26927
8.94	2.26927
8.95	2.25578
8.96	2.25282
8.97	2.24394
8.98	2.26334
8.99	2.25117
9	2.25775
9.01	2.25479
9.02	2.25545
9.03	2.26071
9.04	2.24262
9.05	2.26203
9.06	2.27617
9.07	2.27913
9.08	2.24262
9.09	2.25709
9.1	2.27585
9.11	2.26663
9.12	2.27617
9.13	2.21894
9.14	2.24459
9.15	2.26466
9.16	2.24525
9.17	2.21795
9.18	2.2413
9.19	2.26269
9.2	2.25446
9.21	2.24427
9.22	2.26104
9.23	2.26499
9.24	2.25611
9.25	2.26663
9.26	2.24163
9.27	2.22913
9.28	2.239
9.29	2.25907
9.3	2.28012
9.31	2.24459
9.32	2.26104
9.33	2.24657
9.34	2.24065
9.35	2.24065
9.36	2.26236
9.37	2.24755
9.38	2.25413
9.39	2.28538
9.4	2.26992
9.41	2.27979
9.42	2.26499
9.43	2.28045
9.44	2.26631
9.45	2.25019
9.46	2.25644
9.47	2.26367
9.48	2.24953
9.49	2.26203
9.5	2.27683
9.51	2.23999
9.52	2.27617
9.53	2.27585
9.54	2.24821
9.55	2.2492
9.56	2.26663
9.57	2.25973
9.58	2.22946
9.59	2.25644
9.6	2.239
9.61	2.25874
9.62	2.28275
9.63	2.26334
9.64	2.28045
9.65	2.25644
9.66	2.24492
9.67	2.26006
9.68	2.29131
9.69	2.28144
9.7	2.27058
9.71	2.25545
9.72	2.26762
9.73	2.27585
9.74	2.27124
9.75	2.25117
9.76	2.26927
9.77	2.25973
9.78	2.25282
9.79	2.27321
9.8	2.24755
9.81	2.25446
9.82	2.24591
9.83	2.25808
9.84	2.26499
9.85	2.26334
9.86	2.26828
9.87	2.2288
9.88	2.23867
9.89	2.25479
9.9	2.26729
9.91	2.25249
9.92	2.26894
9.93	2.26433
9.94	2.24525
9.95	2.24723
9.96	2.24328
9.97	2.24591
9.98	2.24558
9.99	2.25578
10	2.27782
10.01	2.23275
10.02	2.25216
10.03	2.26334
10.04	2.2367
10.05	2.24854
10.06	2.24328
10.07	2.28308
10.08	2.25973
10.09	2.24723
10.1	2.24591
10.11	2.23374
10.12	2.24558
10.13	2.24065
10.14	2.26631
10.15	2.25709
10.16	2.27124
10.17	2.24492
10.18	2.26006
10.19	2.26433
10.2	2.26729
10.21	2.26499
10.22	2.27223
10.23	2.24427
10.24	2.23045
10.25	2.24459
10.26	2.25742
10.27	2.25709
10.28	2.25611
10.29	2.27486
10.3	2.24295
10.31	2.24196
10.32	2.25479
10.33	2.26203
10.34	2.2946
10.35	2.26367
10.36	2.29229
10.37	2.24788
10.38	2.24525
10.39	2.23374
10.4	2.28111
10.41	2.27552
10.42	2.26203
10.43	2.24657
10.44	2.25709
10.45	2.264
10.46	2.24788
10.47	2.24295
10.48	2.26532
10.49	2.26663
10.5	2.23571
10.51	2.25907
10.52	2.25907
10.53	2.27519
10.54	2.2617
10.55	2.26565
10.56	2.24591
10.57	2.26137
10.58	2.26729
10.59	2.27124
10.6	2.22848
10.61	2.24229
10.62	2.24657
10.63	2.25117
10.64	2.26236
10.65	2.26598
10.66	2.26598
10.67	2.27091
10.68	2.26565
10.69	2.26236
10.7	2.26038
10.71	2.27124
10.72	2.25973
10.73	2.26927
10.74	2.24459
10.75	2.24986
10.76	2.26203
10.77	2.23736
10.78	2.22913
10.79	2.24361
10.8	2.26071
10.81	2.26236
10.82	2.27256
10.83	2.24492
10.84	2.24229
10.85	2.26565
10.86	2.25874
10.87	2.25413
10.88	2.24657
10.89	2.24755
10.9	2.26992
10.91	2.27913
10.92	2.27354
10.93	2.26828
10.94	2.26729
10.95	2.26433
10.96	2.23045
10.97	2.25052
10.98	2.24229
10.99	2.24525
11	2.25512
11.01	2.27058
11.02	2.23604
11.03	2.26203
11.04	2.27256
11.05	2.25479
11.06	2.26696
11.07	2.29196
11.08	2.28275
11.09	2.26828
11.1	2.26433
11.11	2.26565
11.12	2.26663
11.13	2.27256
11.14	2.25874
11.15	2.23242
11.16	2.25578
11.17	2.24821
11.18	2.2265
11.19	2.24394
11.2	2.25183
11.21	2.28571
11.22	2.239
11.23	2.25874
11.24	2.27486
11.25	2.25216
11.26	2.24854
11.27	2.27683
11.28	2.26532
11.29	2.26466
11.3	2.25282
11.31	2.25841
11.32	2.25249
11.33	2.25282
11.34	2.239
11.35	2.26367
11.36	2.26104
11.37	2.26598
11.38	2.25117
11.39	2.26071
11.4	2.25545
11.41	2.26433
11.42	2.26565
11.43	2.27223
11.44	2.26894
11.45	2.26565
11.46	2.24525
11.47	2.25874
11.48	2.25874
11.49	2.22815
11.5	2.2288
11.51	2.2367
11.52	2.24361
11.53	2.25644
11.54	2.25578
11.55	2.25084
11.56	2.26038
11.57	2.26367
11.58	2.28177
11.59	2.27585
11.6	2.24394
11.61	2.24098
11.62	2.2492
11.63	2.25216
11.64	2.24887
11.65	2.26071
11.66	2.28275
11.67	2.26269
11.68	2.26006
11.69	2.24525
11.7	2.26663
11.71	2.26959
11.72	2.25742
11.73	2.25545
11.74	2.27091
11.75	2.24328
11.76	2.27946
11.77	2.27025
11.78	2.24295
11.79	2.25446
11.8	2.26762
11.81	2.2617
11.82	2.26795
11.83	2.23604
11.84	2.26894
11.85	2.26565
11.86	2.26598
11.87	2.25413
11.88	2.23637
11.89	2.2765
11.9	2.25709
11.91	2.22551
11.92	2.29196
11.93	2.27519
11.94	2.27453
11.95	2.26565
11.96	2.27881
11.97	2.2821
11.98	2.24953
11.99	2.23275
12	2.23242
12.01	2.25117
12.02	2.25578
12.03	2.2469
12.04	2.26696
12.05	2.25282
12.06	2.23933
12.07	2.25446
12.08	2.26532
12.09	2.25841
12.1	2.22716
12.11	2.25052
12.12	2.2617
12.13	2.24328
12.14	2.26367
12.15	2.28374
12.16	2.26565
12.17	2.26367
12.18	2.24196
12.19	2.25709
12.2	2.24163
12.21	2.21203
12.22	2.26532
12.23	2.26532
12.24	2.25611
12.25	2.25019
12.26	2.27979
12.27	2.25479
12.28	2.2413
12.29	2.2413
12.3	2.23505
12.31	2.26203
12.32	2.26499
12.33	2.26795
12.34	2.25413
12.35	2.25413
12.36	2.24361
12.37	2.23308
12.38	2.23341
12.39	2.23111
12.4	2.2765
12.41	2.26598
12.42	2.26104
12.43	2.2594
12.44	2.26959
12.45	2.26137
12.46	2.27387
12.47	2.24624
12.48	2.27552
12.49	2.30019
12.5	2.26992
12.51	2.25315
12.52	2.24887
12.53	2.22683
12.54	2.25446
12.55	2.24328
12.56	2.24723
12.57	2.22222
12.58	2.24065
12.59	2.24459
12.6	2.25446
12.61	2.23538
12.62	2.23769
12.63	2.25874
12.64	2.2538
12.65	2.28111
12.66	2.24361
12.67	2.28538
12.68	2.26236
12.69	2.27223
12.7	2.23538
12.71	2.27552
12.72	2.25315
12.73	2.27453
12.74	2.25742
12.75	2.239
12.76	2.25479
12.77	2.25282
12.78	2.28177
12.79	2.2719
12.8	2.26071
12.81	2.24953
12.82	2.264
12.83	2.25677
12.84	2.2742
12.85	2.27288
12.86	2.2719
12.87	2.22387
12.88	2.26006
12.89	2.29196
12.9	2.25578
12.91	2.26367
12.92	2.27453
12.93	2.25117
12.94	2.24065
12.95	2.27157
12.96	2.25052
12.97	2.26663
12.98	2.26006
12.99	2.29624
13	2.26038
13.01	2.26828
13.02	2.27749
13.03	2.27716
13.04	2.28374
13.05	2.27585
13.06	2.25512
13.07	2.27716
13.08	2.30973
13.09	2.31861
13.1	2.27782
13.11	2.25874
13.12	2.27256
13.13	2.2742
13.14	2.25249
13.15	2.26334
13.16	2.26894
13.17	2.25611
13.18	2.26104
13.19	2.26302
13.2	2.24558
13.21	2.24328
13.22	2.26565
13.23	2.2413
13.24	2.27881
13.25	2.25282
13.26	2.23703
13.27	2.25677
13.28	2.24032
13.29	2.26861
13.3	2.26729
13.31	2.26071
13.32	2.26663
13.33	2.25907
13.34	2.25084
13.35	2.25775
13.36	2.27157
13.37	2.23341
13.38	2.2413
13.39	2.26071
13.4	2.2594
13.41	2.25709
13.42	2.27058
13.43	2.23473
13.44	2.23867
13.45	2.27157
13.46	2.2617
13.47	2.21269
13.48	2.23571
13.49	2.23999
13.5	2.2594
13.51	2.28637
13.52	2.27519
13.53	2.25315
13.54	2.25611
13.55	2.24427
13.56	2.26104
13.57	2.23144
13.58	2.25611
13.59	2.26302
13.6	2.2515
13.61	2.21729
13.62	2.24328
13.63	2.28341
13.64	2.26499
13.65	2.25677
13.66	2.28571
13.67	2.28374
13.68	2.25677
13.69	2.27354
13.7	2.27124
13.71	2.26631
13.72	2.23176
13.73	2.24065
