"BIO-KINE ASCII FILE"
"_COMMENT"	"MOS-500 Spectrometer"
"_COMMENT"	"Kinetics measurement"
"_COMMENT"	"Y Unit : Volt,  X Unit : s"
"_COMMENT"	"Excitation wavelength : 380 nm"
"_COMMENT"	"Fentes bandwidth =  1 nm"
"_COMMENT"	"HV= 1000V"
"_COMMENT"	"Timebase  1 =  .01 s   5001 pts"
"_SFM"	"SFM-400 /S  Advanced mode"
"_SFM"	"Ratio : S1: 2.5, S2: 0, S3: 0, S4: 1"
"_SFM"	"Content : S1: , S2: , S3: , S4:"
"_SFM"	"Concentration : S1: , S2: , S3: , S4:"
"_SFM"	"Total volume : 209 µl  Flow : 3.5 mL/s"
"_SFM"	"Acquisition start :  10 ms before stop"
"_SFM"	"cuve=FC-15, s1=10 ml , s2=10 ml , s3=10 ml , s4=1.9 ml"
"_UNITX"	"s"
"_UNITY"	"Volt"
"_DELTAX"	0
"_DATA"
1e-300	2.97291
0.01	2.9433
0.02	2.92554
0.03	3.02686
0.04	3.06732
0.05	3.05844
0.06	3.10482
0.07	3.13541
0.08	3.16699
0.09	3.16305
0.1	3.18081
0.11	3.15778
0.12	3.17226
0.13	3.2012
0.14	3.20022
0.15	3.20417
0.16	3.21371
0.17	3.20384
0.18	3.2068
0.19	3.21173
0.2	3.1818
0.21	3.21206
0.22	3.20417
0.23	3.1966
0.24	3.19561
0.25	3.22489
0.26	3.22785
0.27	3.19068
0.28	3.22785
0.29	3.21239
0.3	3.21963
0.31	3.21173
0.32	3.19792
0.33	3.20877
0.34	3.19331
0.35	3.16962
0.36	3.19101
0.37	3.17851
0.38	3.21502
0.39	3.19956
0.4	3.18443
0.41	3.20219
0.42	3.21403
0.43	3.23706
0.44	3.21864
0.45	3.19792
0.46	3.23476
0.47	3.21009
0.48	3.22226
0.49	3.19693
0.5	3.18541
0.51	3.2012
0.52	3.19298
0.53	3.20482
0.54	3.20548
0.55	3.21798
0.56	3.2091
0.57	3.21107
0.58	3.17291
0.59	3.1841
0.6	3.15515
0.61	3.19627
0.62	3.21502
0.63	3.19002
0.64	3.17851
0.65	3.20515
0.66	3.18443
0.67	3.20252
0.68	3.20943
0.69	3.20548
0.7	3.21732
0.71	3.20285
0.72	3.2091
0.73	3.1864
0.74	3.22917
0.75	3.22555
0.76	3.17127
0.77	3.22489
0.78	3.19956
0.79	3.18574
0.8	3.19397
0.81	3.19857
0.82	3.18838
0.83	3.18541
0.84	3.19101
0.85	3.18772
0.86	3.1966
0.87	3.20219
0.88	3.19495
0.89	3.17259
0.9	3.18147
0.91	3.19364
0.92	3.20482
0.93	3.20384
0.94	3.17916
0.95	3.19199
0.96	3.17686
0.97	3.22423
0.98	3.20449
0.99	3.20745
1	3.23969
1.01	3.19989
1.02	3.19792
1.03	3.1864
1.04	3.1818
1.05	3.17357
1.06	3.21239
1.07	3.19035
1.08	3.19824
1.09	3.18443
1.1	3.18969
1.11	3.18213
1.12	3.14923
1.13	3.17587
1.14	3.1887
1.15	3.22324
1.16	3.18048
1.17	3.16699
1.18	3.17094
1.19	3.18574
1.2	3.14824
1.21	3.17884
1.22	3.16864
1.23	3.17456
1.24	3.13673
1.25	3.17127
1.26	3.16732
1.27	3.1716
1.28	3.17456
1.29	3.19265
1.3	3.1887
1.31	3.17555
1.32	3.18739
1.33	3.19035
1.34	3.1966
1.35	3.2239
1.36	3.17028
1.37	3.15745
1.38	3.20548
1.39	3.17851
1.4	3.12949
1.41	3.14561
1.42	3.18805
1.43	3.18772
1.44	3.15581
1.45	3.19002
1.46	3.17752
1.47	3.18673
1.48	3.17916
1.49	3.19989
1.5	3.18344
1.51	3.17884
1.52	3.19693
1.53	3.17884
1.54	3.1512
1.55	3.15811
1.56	3.14298
1.57	3.15449
1.58	3.16831
1.59	3.1637
1.6	3.1364
1.61	3.16765
1.62	3.13739
1.63	3.14693
1.64	3.15252
1.65	3.17555
1.66	3.18015
1.67	3.18048
1.68	3.13837
1.69	3.17324
1.7	3.15055
1.71	3.17949
1.72	3.14495
1.73	3.12719
1.74	3.10745
1.75	3.18311
1.76	3.16173
1.77	3.11929
1.78	3.16502
1.79	3.11897
1.8	3.13508
1.81	3.15647
1.82	3.1466
1.83	3.14298
1.84	3.14232
1.85	3.14462
1.86	3.15022
1.87	3.16173
1.88	3.18607
1.89	3.18673
1.9	3.17094
1.91	3.1693
1.92	3.1364
1.93	3.17226
1.94	3.18476
1.95	3.1568
1.96	3.1341
1.97	3.13081
1.98	3.13936
1.99	3.14726
2	3.14956
2.01	3.14528
2.02	3.13804
2.03	3.14495
2.04	3.15745
2.05	3.14824
2.06	3.13673
2.07	3.1568
2.08	3.15778
2.09	3.12291
2.1	3.14133
2.11	3.15219
2.12	3.17226
2.13	3.14331
2.14	3.12127
2.15	3.14989
2.16	3.1716
2.17	3.14956
2.18	3.17061
2.19	3.13936
2.2	3.14133
2.21	3.17357
2.22	3.1864
2.23	3.11765
2.24	3.09232
2.25	3.1489
2.26	3.12324
2.27	3.15186
2.28	3.16041
2.29	3.16305
2.3	3.14166
2.31	3.11535
2.32	3.14857
2.33	3.1387
2.34	3.12653
2.35	3.15614
2.36	3.14166
2.37	3.11469
2.38	3.14824
2.39	3.13114
2.4	3.15515
2.41	3.16995
2.42	3.14133
2.43	3.14199
2.44	3.14528
2.45	3.14397
2.46	3.13048
2.47	3.1262
2.48	3.14594
2.49	3.15285
2.5	3.16962
2.51	3.14331
2.52	3.12686
2.53	3.12785
2.54	3.12357
2.55	3.11239
2.56	3.11897
2.57	3.12982
2.58	3.11535
2.59	3.12949
2.6	3.14791
2.61	3.12883
2.62	3.11699
2.63	3.13311
2.64	3.14989
2.65	3.16831
2.66	3.14495
2.67	3.13673
2.68	3.13443
2.69	3.13936
2.7	3.15383
2.71	3.12522
2.72	3.12061
2.73	3.10679
2.74	3.12291
2.75	3.13147
2.76	3.13739
2.77	3.09956
2.78	3.12719
2.79	3.09956
2.8	3.11304
2.81	3.14429
2.82	3.13147
2.83	3.10679
2.84	3.15943
2.85	3.14824
2.86	3.1285
2.87	3.15022
2.88	3.11732
2.89	3.11074
2.9	3.09923
2.91	3.11962
2.92	3.12061
2.93	3.12653
2.94	3.13278
2.95	3.12028
2.96	3.13015
2.97	3.10943
2.98	3.11173
2.99	3.13837
3	3.12752
3.01	3.11206
3.02	3.12193
3.03	3.11502
3.04	3.11633
3.05	3.1114
3.06	3.15383
3.07	3.16107
3.08	3.11633
3.09	3.12456
3.1	3.13541
3.11	3.14594
3.12	3.14331
3.13	3.12456
3.14	3.10581
3.15	3.14265
3.16	3.09989
3.17	3.09857
3.18	3.10581
3.19	3.15055
3.2	3.12028
3.21	3.1285
3.22	3.1466
3.23	3.11831
3.24	3.10943
3.25	3.11699
3.26	3.1489
3.27	3.12785
3.28	3.11864
3.29	3.12785
3.3	3.13804
3.31	3.11929
3.32	3.12686
3.33	3.14265
3.34	3.09923
3.35	3.10318
3.36	3.09528
3.37	3.1091
3.38	3.0966
3.39	3.12554
3.4	3.09265
3.41	3.08508
3.42	3.13936
3.43	3.12916
3.44	3.11995
3.45	3.10021
3.46	3.11732
3.47	3.10482
3.48	3.11074
3.49	3.09002
3.5	3.09758
3.51	3.12456
3.52	3.14232
3.53	3.15186
3.54	3.12686
3.55	3.11436
3.56	3.12357
3.57	3.12883
3.58	3.11008
3.59	3.06798
3.6	3.12324
3.61	3.09989
3.62	3.11469
3.63	3.13969
3.64	3.1012
3.65	3.1114
3.66	3.11765
3.67	3.10318
3.68	3.14068
3.69	3.1262
3.7	3.11535
3.71	3.06337
3.72	3.09067
3.73	3.09166
3.74	3.07752
3.75	3.09265
3.76	3.08804
3.77	3.09923
3.78	3.10252
3.79	3.07192
3.8	3.1012
3.81	3.09364
3.82	3.12554
3.83	3.07916
3.84	3.11469
3.85	3.08969
3.86	3.07061
3.87	3.09627
3.88	3.10548
3.89	3.11469
3.9	3.09627
3.91	3.06337
3.92	3.09331
3.93	3.12324
3.94	3.08212
3.95	3.1012
3.96	3.11995
3.97	3.08475
3.98	3.0864
3.99	3.06469
4	3.10943
4.01	3.10087
4.02	3.07916
4.03	3.07817
4.04	3.08048
4.05	3.09265
4.06	3.11469
4.07	3.08081
4.08	3.07094
4.09	3.09923
4.1	3.08278
4.11	3.05679
4.12	3.09923
4.13	3.13673
4.14	3.11666
4.15	3.11008
4.16	3.09232
4.17	3.08804
4.18	3.10614
4.19	3.08739
4.2	3.0716
4.21	3.09791
4.22	3.10778
4.23	3.1091
4.24	3.09331
4.25	3.09561
4.26	3.09166
4.27	3.09561
4.28	3.09133
4.29	3.10943
4.3	3.09857
4.31	3.09331
4.32	3.066
4.33	3.08442
4.34	3.09495
4.35	3.10021
4.36	3.08574
4.37	3.08179
4.38	3.09199
4.39	3.05383
4.4	3.09462
4.41	3.07028
4.42	3.10383
4.43	3.08706
4.44	3.07883
4.45	3.0841
4.46	3.07488
4.47	3.08739
4.48	3.0512
4.49	3.04923
4.5	3.07521
4.51	3.08015
4.52	3.07785
4.53	3.07521
4.54	3.0887
4.55	3.0762
4.56	3.0966
4.57	3.05153
4.58	3.13443
4.59	3.10877
4.6	3.10186
4.61	3.10383
4.62	3.08969
4.63	3.06896
4.64	3.09594
4.65	3.06666
4.66	3.11337
4.67	3.08179
4.68	3.10186
4.69	3.12127
4.7	3.09956
4.71	3.06666
4.72	3.08475
4.73	3.10811
4.74	3.07324
4.75	3.0785
4.76	3.08278
4.77	3.06962
4.78	3.10021
4.79	3.08146
4.8	3.06666
4.81	3.07061
4.82	3.06271
4.83	3.07719
4.84	3.06962
4.85	3.06798
4.86	3.08903
4.87	3.09561
4.88	3.1035
4.89	3.08936
4.9	3.10515
4.91	3.066
4.92	3.08442
4.93	3.11469
4.94	3.06403
4.95	3.08574
4.96	3.07949
4.97	3.0637
4.98	3.0489
4.99	3.07719
5	3.07061
5.01	3.05942
5.02	3.09133
5.03	3.08081
5.04	3.06403
5.05	3.06337
5.06	3.07324
5.07	3.05153
5.08	3.08212
5.09	3.09594
5.1	3.066
5.11	3.07653
5.12	3.05581
5.13	3.0364
5.14	3.08475
5.15	3.0785
5.16	3.08015
5.17	3.07817
5.18	3.09265
5.19	3.10252
5.2	3.09824
5.21	3.07554
5.22	3.06666
5.23	3.05745
5.24	3.07752
5.25	3.09824
5.26	3.09857
5.27	3.03409
5.28	3.05482
5.29	3.0989
5.3	3.09528
5.31	3.03442
5.32	3.07752
5.33	3.08541
5.34	3.11304
5.35	3.091
5.36	3.06831
5.37	3.03442
5.38	3.07028
5.39	3.08212
5.4	3.07653
5.41	3.05515
5.42	3.03442
5.43	3.05482
5.44	3.05909
5.45	3.07554
5.46	3.07785
5.47	3.06238
5.48	3.07423
5.49	3.09199
5.5	3.10318
5.51	3.06008
5.52	3.07488
5.53	3.05416
5.54	3.02324
5.55	3.06633
5.56	3.06732
5.57	3.0841
5.58	3.0512
5.59	3.06041
5.6	3.09002
5.61	3.06008
5.62	3.07192
5.63	3.0614
5.64	3.02061
5.65	3.04396
5.66	3.09364
5.67	3.08377
5.68	3.07949
5.69	3.07357
5.7	3.0716
5.71	3.07916
5.72	3.08377
5.73	3.0512
5.74	3.04725
5.75	3.07949
5.76	3.0887
5.77	3.02949
5.78	3.09002
5.79	3.06798
5.8	3.06863
5.81	3.02686
5.82	3.04824
5.83	3.0966
5.84	3.06798
5.85	3.05975
5.86	3.02982
5.87	3.05646
5.88	3.06238
5.89	3.03376
5.9	3.04462
5.91	3.03376
5.92	3.09824
5.93	3.08508
5.94	3.05646
5.95	3.05581
5.96	3.03969
5.97	3.03376
5.98	3.03738
5.99	3.05877
6	3.06173
6.01	3.07291
6.02	3.07028
6.03	3.04462
6.04	3.01501
6.05	3.03508
6.06	3.04462
6.07	3.0716
6.08	3.04067
6.09	3.06008
6.1	3.03969
6.11	3.04791
6.12	3.04955
6.13	3.02258
6.14	3.05153
6.15	3.07061
6.16	3.06436
6.17	3.04988
6.18	3.05909
6.19	3.07028
6.2	3.04528
6.21	3.0512
6.22	3.06863
6.23	3.07752
6.24	3.0489
6.25	3.06863
6.26	3.04627
6.27	3.03541
6.28	3.06008
6.29	3.05186
6.3	3.04199
6.31	3.03442
6.32	3.02719
6.33	3.06206
6.34	3.05811
6.35	3.06699
6.36	3.05581
6.37	3.04824
6.38	3.05646
6.39	3.08344
6.4	3.07192
6.41	3.03475
6.42	3.08936
6.43	3.03146
6.44	3.0239
6.45	3.05581
6.46	3.06173
6.47	3.07587
6.48	3.05613
6.49	3.03311
6.5	3.04495
6.51	3.02883
6.52	2.99758
6.53	3.03376
6.54	3.04067
6.55	3.04232
6.56	3.0387
6.57	3.07949
6.58	3.0762
6.59	3.00909
6.6	3.0489
6.61	3.08574
6.62	3.05317
6.63	3.07291
6.64	3.09265
6.65	3.02949
6.66	3.00909
6.67	3.00416
6.68	3.02192
6.69	3.01863
6.7	3.02554
6.71	3.05844
6.72	3.05778
6.73	3.04298
6.74	3.05646
6.75	3.03376
6.76	3.0285
6.77	3.04561
6.78	3.02423
6.79	3.0387
6.8	3.03146
6.81	3.03245
6.82	3.06469
6.83	3.02587
6.84	3.01304
6.85	3.01896
6.86	3.0512
6.87	3.04627
6.88	3.03607
6.89	3.03376
6.9	3.08146
6.91	3.02159
6.92	3.06173
6.93	3.05646
6.94	3.05613
6.95	3.06173
6.96	3.06502
6.97	3.06732
6.98	3.06173
6.99	3.0433
7	3.01798
7.01	3.02817
7.02	3.0308
7.03	3.04824
7.04	3.00844
7.05	3.04659
7.06	3.04692
7.07	3.04659
7.08	3.01732
7.09	3.02916
7.1	3.02554
7.11	3.05909
7.12	3.03771
7.13	3.07653
7.14	3.04462
7.15	3.05909
7.16	3.041
7.17	3.04594
7.18	3.06008
7.19	3.03311
7.2	3.04265
7.21	3.0262
7.22	3.02061
7.23	3.05186
7.24	3.05021
7.25	3.07982
7.26	3.03804
7.27	3.04002
7.28	3.03048
7.29	3.06271
7.3	3.04396
7.31	3.04462
7.32	3.03146
7.33	3.06633
7.34	3.06403
7.35	3.05778
7.36	3.02554
7.37	3.02291
7.38	3.0183
7.39	3.02423
7.4	3.04659
7.41	3.03146
7.42	3.04725
7.43	3.04166
7.44	2.99067
7.45	3.03541
7.46	3.05219
7.47	3.01699
7.48	3.01041
7.49	3.02784
7.5	3.03903
7.51	3.01929
7.52	3.04265
7.53	3.04659
7.54	3.01172
7.55	3.01798
7.56	3.02916
7.57	3.06534
7.58	3.016
7.59	3.02291
7.6	3.0364
7.61	3.03146
7.62	3.05942
7.63	3.04955
7.64	3.01271
7.65	3.03409
7.66	3.01337
7.67	3.05416
7.68	3.02357
7.69	3.00975
7.7	3.0285
7.71	3.02159
7.72	3.02817
7.73	3.00482
7.74	3.00646
7.75	3.04725
7.76	3.02291
7.77	2.99429
7.78	3.01699
7.79	3.03311
7.8	3.02192
7.81	3.02488
7.82	3.06008
7.83	3.02817
7.84	3.0308
7.85	3.04265
7.86	3.02587
7.87	3.01172
7.88	3.0364
7.89	3.02028
7.9	2.99988
7.91	3.01929
7.92	3.05745
7.93	3.03376
7.94	3.03541
7.95	3.04067
7.96	3.03508
7.97	3.0308
7.98	3.03409
7.99	3.03212
8	3.03376
8.01	3.0058
8.02	3.02192
8.03	3.0387
8.04	3.06732
8.05	3.00909
8.06	3.03212
8.07	3.04199
8.08	3.02883
8.09	3.0012
8.1	3.00449
8.11	3.03903
8.12	3.04659
8.13	3.03607
8.14	3.06502
8.15	3.06041
8.16	3.01896
8.17	3.02653
8.18	2.99626
8.19	3.01633
8.2	3.01699
8.21	2.99692
8.22	3.01798
8.23	3.0137
8.24	2.9864
8.25	2.98607
8.26	3.03278
8.27	3.06173
8.28	3.02357
8.29	2.98672
8.3	3.04199
8.31	3.0308
8.32	3.02982
8.33	3.01765
8.34	3.0262
8.35	3.03442
8.36	3.03179
8.37	3.03705
8.38	3.01271
8.39	3.0183
8.4	3.01995
8.41	3.02949
8.42	3.05778
8.43	3.03771
8.44	3.04034
8.45	3.02324
8.46	3.03113
8.47	3.0183
8.48	2.98508
8.49	2.9933
8.5	3.05021
8.51	3.02719
8.52	2.99857
8.53	3.01008
8.54	3.02094
8.55	3.00087
8.56	3.0012
8.57	3.02192
8.58	2.97061
8.59	3.00186
8.6	3.01469
8.61	3.0137
8.62	2.99791
8.63	3.01929
8.64	3.00021
8.65	3.03245
8.66	2.99922
8.67	2.99034
8.68	2.9989
8.69	3.03738
8.7	3.02225
8.71	3.00942
8.72	3.02258
8.73	3.01765
8.74	3.00383
8.75	3.00844
8.76	3.03146
8.77	2.98541
8.78	3.00317
8.79	3.00646
8.8	3.01699
8.81	2.99265
8.82	2.9933
8.83	3.01567
8.84	3.00153
8.85	3.01469
8.86	3.04758
8.87	3.03376
8.88	3.041
8.89	3.02653
8.9	3.01962
8.91	3.04462
8.92	3.0114
8.93	2.99528
8.94	3.02817
8.95	3.02423
8.96	3.02357
8.97	2.99988
8.98	2.99363
8.99	2.991
9	3.01074
9.01	3.01304
9.02	3.04067
9.03	3.0035
9.04	2.99659
9.05	2.97686
9.06	2.99626
9.07	3.01238
9.08	3.03541
9.09	3.01929
9.1	3.01732
9.11	2.97422
9.12	3.02423
9.13	3.01699
9.14	3.00251
9.15	3.01008
9.16	3.00778
9.17	2.99922
9.18	3.00679
9.19	3.03113
9.2	3.02751
9.21	3.05679
9.22	3.02357
9.23	3.00712
9.24	3.04429
9.25	3.00054
9.26	3.02982
9.27	2.98771
9.28	3.03245
9.29	3.02686
9.3	3.01567
9.31	3.00547
9.32	2.99626
9.33	2.99857
9.34	2.98936
9.35	3.02554
9.36	3.01238
9.37	3.02258
9.38	2.98903
9.39	2.966
9.4	2.99988
9.41	3.04363
9.42	3.01863
9.43	2.99528
9.44	3.00613
9.45	3.01534
9.46	2.97061
9.47	2.96764
9.48	3.02061
9.49	3.01929
9.5	3.01107
9.51	3.00679
9.52	3.0535
9.53	3.01501
9.54	2.98311
9.55	3.0308
9.56	3.03409
9.57	3.00186
9.58	2.98541
9.59	3.00613
9.6	3.01436
9.61	3.02488
9.62	3.00942
9.63	2.99297
9.64	2.9808
9.65	3.00054
9.66	3.00416
9.67	3.0035
9.68	3.02455
9.69	3.00712
9.7	3.0012
9.71	3.02126
9.72	3.01469
9.73	3.00482
9.74	3.01633
9.75	2.99396
9.76	2.9864
9.77	2.97883
9.78	3.00449
9.79	2.98146
9.8	2.98672
9.81	3.01304
9.82	3.016
9.83	2.98903
9.84	2.97093
9.85	2.96107
9.86	2.9785
9.87	2.98508
9.88	2.97488
9.89	3.01107
9.9	3.02028
9.91	3.01567
9.92	3.0012
9.93	2.99626
9.94	2.98936
9.95	3.00054
9.96	2.98936
9.97	2.99495
9.98	2.99725
9.99	3.01074
10	3.01798
10.01	3.00942
10.02	2.9864
10.03	3.03771
10.04	2.9762
10.05	2.98442
10.06	2.97093
10.07	2.97126
10.08	3.00515
10.09	3.00449
10.1	3.01567
10.11	3.00745
10.12	3.00547
10.13	3.0058
10.14	3.02357
10.15	2.9887
10.16	2.9933
10.17	3.01238
10.18	3.00844
10.19	2.9864
10.2	2.99265
10.21	3.03409
10.22	3.01074
10.23	3.00679
10.24	3.01238
10.25	3.01633
10.26	3.02554
10.27	2.97159
10.28	3.00679
10.29	3.01271
10.3	3.01074
10.31	2.97521
10.32	2.98738
10.33	3.00712
10.34	3.01041
10.35	2.99034
10.36	3.01469
10.37	3.01008
10.38	2.97982
10.39	2.99725
10.4	2.99166
10.41	3.01337
10.42	3.01469
10.43	3.00712
10.44	2.99429
10.45	3.00153
10.46	3.00449
10.47	2.96435
10.48	2.9512
10.49	3.02817
10.5	3.00679
10.51	2.99922
10.52	3.01107
10.53	3.00186
10.54	2.98475
10.55	3.0114
10.56	2.97324
10.57	2.97784
10.58	3.00087
10.59	3.02225
10.6	3.03607
10.61	2.99857
10.62	2.99955
10.63	2.98278
10.64	2.99758
10.65	2.99593
10.66	3.01074
10.67	2.99955
10.68	3.01633
10.69	2.99166
10.7	2.97357
10.71	2.99692
10.72	2.99561
10.73	2.95942
10.74	2.97949
10.75	2.9808
10.76	3.01863
10.77	3.01271
10.78	2.98936
10.79	2.99067
10.8	3.0262
10.81	2.99297
10.82	2.97291
10.83	3.00317
10.84	3.00613
10.85	2.98541
10.86	2.97093
10.87	2.98278
10.88	2.98771
10.89	3.02324
10.9	3.02587
10.91	3.04594
10.92	2.99495
10.93	2.96666
10.94	2.97982
10.95	2.97554
10.96	2.98343
10.97	3.0035
10.98	3.00712
10.99	2.99692
11	2.97883
11.01	2.96863
11.02	2.99166
11.03	2.99955
11.04	2.99396
11.05	2.98968
11.06	2.96995
11.07	2.9887
11.08	2.99955
11.09	2.99495
11.1	2.97422
11.11	2.97949
11.12	2.97192
11.13	3.00219
11.14	2.96304
11.15	2.99001
11.16	2.94824
11.17	2.99166
11.18	2.99988
11.19	2.96107
11.2	2.97291
11.21	2.97324
11.22	2.97686
11.23	2.9762
11.24	2.98146
11.25	2.96995
11.26	2.97718
11.27	2.97192
11.28	3.00646
11.29	3.0137
11.3	2.99133
11.31	2.9785
11.32	2.9262
11.33	2.96074
11.34	2.97258
11.35	2.99922
11.36	2.97291
11.37	2.9683
11.38	2.95646
11.39	2.99363
11.4	2.98245
11.41	2.98508
11.42	3.00646
11.43	2.9864
11.44	2.93771
11.45	2.99561
11.46	3.0058
11.47	2.96797
11.48	2.98113
11.49	2.96567
11.5	2.99659
11.51	2.99692
11.52	2.97126
11.53	2.9933
11.54	2.99199
11.55	3.0035
11.56	3.00317
11.57	3.02028
11.58	3.00975
11.59	2.96929
11.6	2.98047
11.61	2.97521
11.62	2.98672
11.63	3.0058
11.64	3.0058
11.65	2.98343
11.66	2.96205
11.67	3.01501
11.68	2.97093
11.69	2.98278
11.7	3.00416
11.71	3.00416
11.72	2.99462
11.73	3.01304
11.74	2.96995
11.75	2.94626
11.76	2.94856
11.77	2.99725
11.78	3.01995
11.79	2.98014
11.8	2.99265
11.81	2.99001
11.82	2.97061
11.83	2.95383
11.84	2.97455
11.85	2.95185
11.86	2.98311
11.87	2.99166
11.88	2.98936
11.89	2.99001
11.9	3.00811
11.91	2.98245
11.92	3.01534
11.93	2.99955
11.94	3.02028
11.95	2.99593
11.96	3.00054
11.97	2.98014
11.98	2.99561
11.99	2.97817
12	2.96074
12.01	3.00515
12.02	2.9864
12.03	2.9637
12.04	2.98541
12.05	2.98903
12.06	3.00054
12.07	2.96238
12.08	2.96468
12.09	3.01403
12.1	2.97751
12.11	2.98903
12.12	2.99429
12.13	3.01337
12.14	3.02324
12.15	2.98968
12.16	2.97718
12.17	2.97061
12.18	2.97225
12.19	2.97422
12.2	2.98343
12.21	3.00219
12.22	2.98607
12.23	2.96896
12.24	2.96896
12.25	2.98804
12.26	3.0114
12.27	2.96633
12.28	2.96501
12.29	2.96139
12.3	2.96534
12.31	2.9535
12.32	2.99133
12.33	2.96107
12.34	2.96304
12.35	2.98212
12.36	2.98705
12.37	2.94988
12.38	2.93212
12.39	2.96929
12.4	2.96205
12.41	2.98672
12.42	3.02094
12.43	2.99199
12.44	2.97817
12.45	3.00811
12.46	2.95613
12.47	2.96435
12.48	2.97982
12.49	2.9933
12.5	3.01995
12.51	3.00054
12.52	2.98508
12.53	2.92883
12.54	2.94133
12.55	2.96337
12.56	2.96929
12.57	2.96304
12.58	2.97653
12.59	2.9785
12.6	2.98738
12.61	2.97093
12.62	2.96633
12.63	2.98113
12.64	2.98672
12.65	2.96337
12.66	2.98607
12.67	2.98607
12.68	3.02949
12.69	3.02653
12.7	2.99396
12.71	2.9989
12.72	2.98607
12.73	2.98376
12.74	2.99199
12.75	2.95547
12.76	2.9535
12.77	2.96995
12.78	2.96008
12.79	2.96666
12.8	2.95778
12.81	2.99067
12.82	2.97126
12.83	2.94955
12.84	2.94396
12.85	2.95218
12.86	2.97718
12.87	2.95745
12.88	2.96699
12.89	2.97949
12.9	2.9808
12.91	2.99034
12.92	2.96107
12.93	2.92159
12.94	2.98705
12.95	3.00975
12.96	2.97751
12.97	2.9808
12.98	3.02324
12.99	2.96962
13	2.97883
13.01	2.97784
13.02	2.94659
13.03	2.95218
13.04	2.96633
13.05	2.966
13.06	2.97324
13.07	2.9933
13.08	2.96699
13.09	2.99495
13.1	2.97455
13.11	3.01501
13.12	2.97686
13.13	2.99528
13.14	2.97225
13.15	2.96567
13.16	2.97653
13.17	2.9683
13.18	2.97949
13.19	2.95942
13.2	2.95284
13.21	2.99363
13.22	2.98014
13.23	2.97455
13.24	2.94988
13.25	2.97126
13.26	2.96633
13.27	2.97718
13.28	3.0012
13.29	2.97916
13.3	2.97883
13.31	2.97258
13.32	2.93672
13.33	2.95383
13.34	2.98771
13.35	2.94133
13.36	2.9808
13.37	2.97587
13.38	2.94231
13.39	2.96929
13.4	2.97653
13.41	2.94791
13.42	2.98475
13.43	2.98508
13.44	2.96041
13.45	2.97061
13.46	2.95449
13.47	2.98047
13.48	2.97225
13.49	2.99232
13.5	2.99462
13.51	2.97225
13.52	2.9581
13.53	2.96534
13.54	2.99265
13.55	2.98113
13.56	2.98113
13.57	2.94988
13.58	2.98508
13.59	2.9535
13.6	2.96337
13.61	2.96205
13.62	2.95021
13.63	2.94856
13.64	2.96172
13.65	3.00383
13.66	2.991
13.67	2.96567
13.68	2.96896
13.69	2.9808
13.7	2.97982
13.71	2.96732
13.72	2.94593
13.73	2.96633
13.74	2.99626
13.75	2.99297
13.76	3.0035
