"BIO-KINE ASCII FILE"
"_COMMENT"	"MOS-500 Spectrometer"
"_COMMENT"	"Kinetics measurement"
"_COMMENT"	"Y Unit : Volt,  X Unit : s"
"_COMMENT"	"Excitation wavelength : 380 nm"
"_COMMENT"	"Fentes bandwidth =  1 nm"
"_COMMENT"	"HV= 1000V"
"_COMMENT"	"Timebase  1 =  .01 s   3001 pts"
"_SFM"	"SFM-400 /S  Advanced mode"
"_SFM"	"Ratio : S1: 2.5, S2: 0, S3: 0, S4: 1"
"_SFM"	"Content : S1: , S2: , S3: , S4:"
"_SFM"	"Concentration : S1: , S2: , S3: , S4:"
"_SFM"	"Total volume : 209 µl  Flow : 3.5 mL/s"
"_SFM"	"Acquisition start :  10 ms before stop"
"_SFM"	"cuve=FC-15, s1=10 ml , s2=10 ml , s3=10 ml , s4=1.9 ml"
"_UNITX"	"s"
"_UNITY"	"Volt"
"_DELTAX"	0
"_DATA"
1e-300	2.61533
0.01	2.60118
0.02	2.62619
0.03	2.64921
0.04	2.66336
0.05	2.69987
0.06	2.70711
0.07	2.69296
0.08	2.74691
0.09	2.75448
0.1	2.74165
0.11	2.77849
0.12	2.79757
0.13	2.7502
0.14	2.76336
0.15	2.76698
0.16	2.77948
0.17	2.79395
0.18	2.82257
0.19	2.78869
0.2	2.78474
0.21	2.81139
0.22	2.79264
0.23	2.81928
0.24	2.82257
0.25	2.79165
0.26	2.82389
0.27	2.80744
0.28	2.79856
0.29	2.80218
0.3	2.78277
0.31	2.79856
0.32	2.7979
0.33	2.80481
0.34	2.81731
0.35	2.7956
0.36	2.80909
0.37	2.79889
0.38	2.82619
0.39	2.8104
0.4	2.81007
0.41	2.80481
0.42	2.80678
0.43	2.76862
0.44	2.77586
0.45	2.80547
0.46	2.79132
0.47	2.83178
0.48	2.79034
0.49	2.80613
0.5	2.81271
0.51	2.82422
0.52	2.85021
0.53	2.81106
0.54	2.81632
0.55	2.81764
0.56	2.79034
0.57	2.80382
0.58	2.81632
0.59	2.82652
0.6	2.8354
0.61	2.78869
0.62	2.78441
0.63	2.77882
0.64	2.78705
0.65	2.8104
0.66	2.82817
0.67	2.82948
0.68	2.82586
0.69	2.81336
0.7	2.7956
0.71	2.80185
0.72	2.79692
0.73	2.77652
0.74	2.79264
0.75	2.79593
0.76	2.79297
0.77	2.80185
0.78	2.79264
0.79	2.80349
0.8	2.7683
0.81	2.76961
0.82	2.77619
0.83	2.78343
0.84	2.79461
0.85	2.79593
0.86	2.81336
0.87	2.79988
0.88	2.79988
0.89	2.79626
0.9	2.79264
0.91	2.81534
0.92	2.75711
0.93	2.81632
0.94	2.81698
0.95	2.81863
0.96	2.78902
0.97	2.81567
0.98	2.7956
0.99	2.80284
1	2.80777
1.01	2.79922
1.02	2.81435
1.03	2.80086
1.04	2.77356
1.05	2.80053
1.06	2.81994
1.07	2.78705
1.08	2.79297
1.09	2.79922
1.1	2.8285
1.11	2.80711
1.12	2.79659
1.13	2.78836
1.14	2.80514
1.15	2.80119
1.16	2.78672
1.17	2.78869
1.18	2.77816
1.19	2.8081
1.2	2.80744
1.21	2.8104
1.22	2.80415
1.23	2.78639
1.24	2.78409
1.25	2.78507
1.26	2.81402
1.27	2.83771
1.28	2.80547
1.29	2.81106
1.3	2.82093
1.31	2.79955
1.32	2.79593
1.33	2.77685
1.34	2.7729
1.35	2.7979
1.36	2.81731
1.37	2.80086
1.38	2.81139
1.39	2.79988
1.4	2.78606
1.41	2.75974
1.42	2.77159
1.43	2.80251
1.44	2.7706
1.45	2.78507
1.46	2.76007
1.47	2.76369
1.48	2.79297
1.49	2.80481
1.5	2.81336
1.51	2.79099
1.52	2.79066
1.53	2.78672
1.54	2.80317
1.55	2.81994
1.56	2.80086
1.57	2.78211
1.58	2.79692
1.59	2.80645
1.6	2.8206
1.61	2.81994
1.62	2.77389
1.63	2.79527
1.64	2.83277
1.65	2.78145
1.66	2.79527
1.67	2.79395
1.68	2.78244
1.69	2.83211
1.7	2.80547
1.71	2.78968
1.72	2.80744
1.73	2.78376
1.74	2.78441
1.75	2.77751
1.76	2.79856
1.77	2.7933
1.78	2.78672
1.79	2.82192
1.8	2.78474
1.81	2.77816
1.82	2.77553
1.83	2.7752
1.84	2.78968
1.85	2.80613
1.86	2.76895
1.87	2.77882
1.88	2.81896
1.89	2.80284
1.9	2.77455
1.91	2.76534
1.92	2.77093
1.93	2.82389
1.94	2.80152
1.95	2.80645
1.96	2.78968
1.97	2.79692
1.98	2.78474
1.99	2.77191
2	2.7808
2.01	2.79724
2.02	2.78113
2.03	2.78507
2.04	2.8002
2.05	2.75744
2.06	2.78803
2.07	2.76797
2.08	2.76862
2.09	2.75908
2.1	2.81106
2.11	2.78014
2.12	2.78376
2.13	2.80711
2.14	2.77027
2.15	2.76007
2.16	2.7604
2.17	2.78409
2.18	2.78507
2.19	2.78507
2.2	2.77553
2.21	2.77093
2.22	2.79889
2.23	2.77981
2.24	2.74198
2.25	2.77389
2.26	2.77586
2.27	2.74395
2.28	2.76172
2.29	2.75843
2.3	2.7933
2.31	2.79198
2.32	2.78672
2.33	2.76534
2.34	2.79165
2.35	2.75251
2.36	2.76501
2.37	2.76632
2.38	2.78474
2.39	2.77389
2.4	2.7831
2.41	2.74395
2.42	2.75941
2.43	2.7706
2.44	2.78014
2.45	2.76764
2.46	2.77191
2.47	2.7831
2.48	2.76007
2.49	2.80448
2.5	2.78869
2.51	2.80876
2.52	2.77784
2.53	2.72191
2.54	2.76468
2.55	2.79034
2.56	2.78145
2.57	2.78178
2.58	2.77685
2.59	2.77553
2.6	2.76599
2.61	2.77619
2.62	2.77718
2.63	2.77389
2.64	2.79001
2.65	2.79066
2.66	2.79165
2.67	2.74955
2.68	2.78803
2.69	2.80349
2.7	2.76994
2.71	2.77389
2.72	2.76468
2.73	2.7683
2.74	2.75974
2.75	2.77816
2.76	2.75218
2.77	2.74889
2.78	2.76665
2.79	2.77323
2.8	2.77553
2.81	2.78014
2.82	2.76632
2.83	2.76007
2.84	2.77948
2.85	2.78902
2.86	2.76928
2.87	2.78738
2.88	2.7683
2.89	2.78211
2.9	2.76599
2.91	2.77652
2.92	2.76961
2.93	2.74099
2.94	2.7752
2.95	2.7831
2.96	2.76632
2.97	2.76665
2.98	2.75777
2.99	2.77718
3	2.77455
3.01	2.76566
3.02	2.76961
3.03	2.75119
3.04	2.74856
3.05	2.80218
3.06	2.76336
3.07	2.74297
3.08	2.77784
3.09	2.8058
3.1	2.77422
3.11	2.74626
3.12	2.75152
3.13	2.75843
3.14	2.76731
3.15	2.8058
3.16	2.77751
3.17	2.76501
3.18	2.79132
3.19	2.76205
3.2	2.79001
3.21	2.78145
3.22	2.76764
3.23	2.77389
3.24	2.76862
3.25	2.76468
3.26	2.75843
3.27	2.77093
3.28	2.75974
3.29	2.77718
3.3	2.80909
3.31	2.78639
3.32	2.75711
3.33	2.77718
3.34	2.80481
3.35	2.79428
3.36	2.77784
3.37	2.76435
3.38	2.79066
3.39	2.77257
3.4	2.77586
3.41	2.77816
3.42	2.78672
3.43	2.76205
3.44	2.74428
3.45	2.74461
3.46	2.77257
3.47	2.76073
3.48	2.79198
3.49	2.76237
3.5	2.76566
3.51	2.75382
3.52	2.75382
3.53	2.78869
3.54	2.75908
3.55	2.79988
3.56	2.7752
3.57	2.77323
3.58	2.77784
3.59	2.78178
3.6	2.79001
3.61	2.76501
3.62	2.75086
3.63	2.77652
3.64	2.76928
3.65	2.76599
3.66	2.77619
3.67	2.74889
3.68	2.76665
3.69	2.76895
3.7	2.76599
3.71	2.78244
3.72	2.75382
3.73	2.7729
3.74	2.75086
3.75	2.74428
3.76	2.74757
3.77	2.77553
3.78	2.77126
3.79	2.7502
3.8	2.74691
3.81	2.7558
3.82	2.78145
3.83	2.76928
3.84	2.75481
3.85	2.7706
3.86	2.77027
3.87	2.77323
3.88	2.76665
3.89	2.73606
3.9	2.74856
3.91	2.71566
3.92	2.7581
3.93	2.74889
3.94	2.74231
3.95	2.7752
3.96	2.76435
3.97	2.75415
3.98	2.74955
3.99	2.78211
4	2.77981
4.01	2.76797
4.02	2.76698
4.03	2.73112
4.04	2.76566
4.05	2.77126
4.06	2.72948
4.07	2.77257
4.08	2.76172
4.09	2.75547
4.1	2.77257
4.11	2.76106
4.12	2.75777
4.13	2.77422
4.14	2.77093
4.15	2.73836
4.16	2.72685
4.17	2.74362
4.18	2.74066
4.19	2.75448
4.2	2.74198
4.21	2.77093
4.22	2.75086
4.23	2.78836
4.24	2.75777
4.25	2.75711
4.26	2.76534
4.27	2.7604
4.28	2.76402
4.29	2.75218
4.3	2.72816
4.31	2.7456
4.32	2.76862
4.33	2.77323
4.34	2.75251
4.35	2.74165
4.36	2.75415
4.37	2.72454
4.38	2.75974
4.39	2.75119
4.4	2.76237
4.41	2.77586
4.42	2.75711
4.43	2.74165
4.44	2.75382
4.45	2.74955
4.46	2.72422
4.47	2.70185
4.48	2.73145
4.49	2.77751
4.5	2.74297
4.51	2.75876
4.52	2.7729
4.53	2.73474
4.54	2.75941
4.55	2.72158
4.56	2.75218
4.57	2.76303
4.58	2.74329
4.59	2.73474
4.6	2.75678
4.61	2.74033
4.62	2.74987
4.63	2.74428
4.64	2.7627
4.65	2.74033
4.66	2.75119
4.67	2.72849
4.68	2.70875
4.69	2.74757
4.7	2.77191
4.71	2.75711
4.72	2.7558
4.73	2.76237
4.74	2.74889
4.75	2.74362
4.76	2.76994
4.77	2.76402
4.78	2.75316
4.79	2.73474
4.8	2.74329
4.81	2.75086
4.82	2.74461
4.83	2.72915
4.84	2.72224
4.85	2.7581
4.86	2.76698
4.87	2.7206
4.88	2.74987
4.89	2.7558
4.9	2.75053
4.91	2.77619
4.92	2.73507
4.93	2.73474
4.94	2.7558
4.95	2.75185
4.96	2.75382
4.97	2.77126
4.98	2.75185
4.99	2.73902
5	2.72849
5.01	2.74033
5.02	2.74001
5.03	2.75941
5.04	2.74987
5.05	2.78113
5.06	2.77422
5.07	2.7502
5.08	2.74099
5.09	2.73672
5.1	2.73376
5.11	2.78507
5.12	2.74297
5.13	2.74593
5.14	2.7729
5.15	2.75941
5.16	2.7683
5.17	2.79231
5.18	2.77422
5.19	2.7502
5.2	2.75678
5.21	2.76501
5.22	2.75908
5.23	2.75974
5.24	2.78244
5.25	2.72553
5.26	2.72553
5.27	2.73047
5.28	2.76961
5.29	2.75349
5.3	2.72191
5.31	2.73441
5.32	2.75415
5.33	2.77323
5.34	2.75744
5.35	2.76172
5.36	2.77455
5.37	2.73079
5.38	2.75283
5.39	2.75185
5.4	2.73441
5.41	2.74955
5.42	2.74757
5.43	2.7354
5.44	2.74527
5.45	2.74033
5.46	2.78441
5.47	2.7808
5.48	2.71862
5.49	2.71237
5.5	2.74856
5.51	2.74856
5.52	2.73079
5.53	2.7275
5.54	2.70843
5.55	2.74856
5.56	2.74626
5.57	2.73803
5.58	2.74231
5.59	2.71961
5.6	2.74955
5.61	2.74231
5.62	2.75448
5.63	2.72619
5.64	2.74626
5.65	2.71599
5.66	2.7229
5.67	2.73606
5.68	2.73014
5.69	2.75612
5.7	2.70185
5.71	2.73737
5.72	2.73014
5.73	2.7456
5.74	2.70744
5.75	2.75119
5.76	2.76007
5.77	2.74231
5.78	2.7377
5.79	2.73178
5.8	2.72487
5.81	2.73902
5.82	2.74823
5.83	2.73639
5.84	2.74823
5.85	2.75053
5.86	2.7377
5.87	2.74395
5.88	2.74889
5.89	2.73441
5.9	2.71171
5.91	2.75152
5.92	2.77191
5.93	2.74297
5.94	2.76007
5.95	2.76369
5.96	2.74099
5.97	2.74001
5.98	2.73376
5.99	2.75481
6	2.76566
6.01	2.74757
6.02	2.74823
6.03	2.7502
6.04	2.75547
6.05	2.78474
6.06	2.74658
6.07	2.73014
6.08	2.76139
6.09	2.76237
6.1	2.74297
6.11	2.77191
6.12	2.7581
6.13	2.73737
6.14	2.74066
6.15	2.74527
6.16	2.73244
6.17	2.72718
6.18	2.72454
6.19	2.7229
6.2	2.7206
6.21	2.73112
6.22	2.75612
6.23	2.73079
6.24	2.74626
6.25	2.73244
6.26	2.72718
6.27	2.75448
6.28	2.73047
6.29	2.76106
6.3	2.7558
6.31	2.73376
6.32	2.74428
6.33	2.73902
6.34	2.72816
6.35	2.74658
6.36	2.75448
6.37	2.76139
6.38	2.74757
6.39	2.74198
6.4	2.74329
6.41	2.74691
6.42	2.7354
6.43	2.73014
6.44	2.75119
6.45	2.74856
6.46	2.73902
6.47	2.73178
6.48	2.75283
6.49	2.75382
6.5	2.75382
6.51	2.76895
6.52	2.72652
6.53	2.70514
6.54	2.73672
6.55	2.73112
6.56	2.73047
6.57	2.74198
6.58	2.74231
6.59	2.71862
6.6	2.75645
6.61	2.73112
6.62	2.71895
6.63	2.72257
6.64	2.7229
6.65	2.77159
6.66	2.75843
6.67	2.74658
6.68	2.76303
6.69	2.75382
6.7	2.72257
6.71	2.715
6.72	2.71829
6.73	2.72981
6.74	2.73014
6.75	2.76764
6.76	2.75514
6.77	2.72685
6.78	2.73902
6.79	2.7558
6.8	2.72882
6.81	2.7729
6.82	2.77389
6.83	2.71994
6.84	2.74099
6.85	2.73935
6.86	2.74066
6.87	2.72454
6.88	2.75152
6.89	2.73277
6.9	2.75152
6.91	2.73935
6.92	2.73507
6.93	2.74066
6.94	2.74691
6.95	2.73277
6.96	2.73606
6.97	2.73211
6.98	2.75415
6.99	2.74132
7	2.72685
7.01	2.74494
7.02	2.73803
7.03	2.73737
7.04	2.75053
7.05	2.76402
7.06	2.75119
7.07	2.73639
7.08	2.72816
7.09	2.7354
7.1	2.69658
7.11	2.75777
7.12	2.75711
7.13	2.80744
7.14	2.73376
7.15	2.72093
7.16	2.71632
7.17	2.74626
7.18	2.76369
7.19	2.71468
7.2	2.71435
7.21	2.71599
7.22	2.71303
7.23	2.71731
7.24	2.74856
7.25	2.7377
7.26	2.72454
7.27	2.72783
7.28	2.73803
7.29	2.73112
7.3	2.74691
7.31	2.7252
7.32	2.71402
7.33	2.74593
7.34	2.73639
7.35	2.69329
7.36	2.7081
7.37	2.70218
7.38	2.76073
7.39	2.73672
7.4	2.73408
7.41	2.74329
7.42	2.71994
7.43	2.72948
7.44	2.75283
7.45	2.71303
7.46	2.73112
7.47	2.70777
7.48	2.72257
7.49	2.72454
7.5	2.69428
7.51	2.73277
7.52	2.75349
7.53	2.7627
7.54	2.69461
7.55	2.74264
7.56	2.74593
7.57	2.7354
7.58	2.72027
7.59	2.7275
7.6	2.75086
7.61	2.7206
7.62	2.71007
7.63	2.71237
7.64	2.73441
7.65	2.73277
7.66	2.72718
7.67	2.71303
7.68	2.72685
7.69	2.71632
7.7	2.73639
7.71	2.74626
7.72	2.72158
7.73	2.70974
7.74	2.72553
7.75	2.71731
7.76	2.70448
7.77	2.74626
7.78	2.74691
7.79	2.75251
7.8	2.75645
7.81	2.73639
7.82	2.70974
7.83	2.69165
7.84	2.70481
7.85	2.7331
7.86	2.76336
7.87	2.73211
7.88	2.72158
7.89	2.72125
7.9	2.75382
7.91	2.72553
7.92	2.7627
7.93	2.71961
7.94	2.72586
7.95	2.75843
7.96	2.73836
7.97	2.75415
7.98	2.73047
7.99	2.71665
8	2.72981
8.01	2.72652
8.02	2.71402
8.03	2.75612
8.04	2.71829
8.05	2.71797
8.06	2.74066
8.07	2.7229
8.08	2.74593
8.09	2.72027
8.1	2.70777
8.11	2.73836
8.12	2.7206
8.13	2.72356
8.14	2.74066
8.15	2.74001
8.16	2.74198
8.17	2.74626
8.18	2.71797
8.19	2.73606
8.2	2.70612
8.21	2.74033
8.22	2.74165
8.23	2.70546
8.24	2.68441
8.25	2.73474
8.26	2.7479
8.27	2.73244
8.28	2.71566
8.29	2.6775
8.3	2.68606
8.31	2.68737
8.32	2.71928
8.33	2.75251
8.34	2.72882
8.35	2.72422
8.36	2.70908
8.37	2.69856
8.38	2.6956
8.39	2.70086
8.4	2.71106
8.41	2.72981
8.42	2.71237
8.43	2.73014
8.44	2.72849
8.45	2.7081
8.46	2.73704
8.47	2.72652
8.48	2.70185
8.49	2.72093
8.5	2.69494
8.51	2.70218
8.52	2.7104
8.53	2.72125
8.54	2.75349
8.55	2.75711
8.56	2.69625
8.57	2.69724
8.58	2.71599
8.59	2.73112
8.6	2.73376
8.61	2.7081
8.62	2.69757
8.63	2.71829
8.64	2.73408
8.65	2.6956
8.66	2.70119
8.67	2.7275
8.68	2.71632
8.69	2.70777
8.7	2.7206
8.71	2.71106
8.72	2.74823
8.73	2.73244
8.74	2.70843
8.75	2.72882
8.76	2.72027
8.77	2.71665
8.78	2.72454
8.79	2.73606
8.8	2.71007
8.81	2.69856
8.82	2.71797
8.83	2.71632
8.84	2.72783
8.85	2.72849
8.86	2.74198
8.87	2.71994
8.88	2.69921
8.89	2.7104
8.9	2.72487
8.91	2.73507
8.92	2.72422
8.93	2.71599
8.94	2.73507
8.95	2.70777
8.96	2.69
8.97	2.69823
8.98	2.7002
8.99	2.72816
9	2.74099
9.01	2.71402
9.02	2.69329
9.03	2.70119
9.04	2.73244
9.05	2.71435
9.06	2.70908
9.07	2.74231
9.08	2.7229
9.09	2.70941
9.1	2.70711
9.11	2.74033
9.12	2.73211
9.13	2.74724
9.14	2.7604
9.15	2.72422
9.16	2.68277
9.17	2.75547
9.18	2.72224
9.19	2.69856
9.2	2.71994
9.21	2.70448
9.22	2.71468
9.23	2.71994
9.24	2.71928
9.25	2.71204
9.26	2.72981
9.27	2.72027
9.28	2.71698
9.29	2.70678
9.3	2.71073
9.31	2.70678
9.32	2.70744
9.33	2.69033
9.34	2.70218
9.35	2.72422
9.36	2.73869
9.37	2.71139
9.38	2.7127
9.39	2.69066
9.4	2.71204
9.41	2.71369
9.42	2.72257
9.43	2.73606
9.44	2.70843
9.45	2.72389
9.46	2.73112
9.47	2.76632
9.48	2.74428
9.49	2.72158
9.5	2.72553
9.51	2.68277
9.52	2.67652
9.53	2.69428
9.54	2.71171
9.55	2.70283
9.56	2.73507
9.57	2.72487
9.58	2.74428
9.59	2.70941
9.6	2.72093
9.61	2.72652
9.62	2.71731
9.63	2.70744
9.64	2.71599
9.65	2.71171
9.66	2.715
9.67	2.71764
9.68	2.68639
9.69	2.69461
9.7	2.6979
9.71	2.74494
9.72	2.72948
9.73	2.69264
9.74	2.6956
9.75	2.715
9.76	2.7377
9.77	2.6752
9.78	2.71533
9.79	2.74691
9.8	2.73079
9.81	2.71566
9.82	2.6752
9.83	2.68737
9.84	2.68803
9.85	2.68737
9.86	2.70382
9.87	2.70119
9.88	2.72125
9.89	2.70908
9.9	2.72422
9.91	2.73014
9.92	2.70053
9.93	2.72454
9.94	2.70908
9.95	2.68704
9.96	2.71665
9.97	2.71435
9.98	2.72125
9.99	2.71665
10	2.69132
10.01	2.69724
10.02	2.71797
10.03	2.71106
10.04	2.71566
10.05	2.71599
10.06	2.68671
10.07	2.70119
10.08	2.72389
10.09	2.75316
10.1	2.70283
10.11	2.71731
10.12	2.72323
10.13	2.70086
10.14	2.68013
10.15	2.7229
10.16	2.73968
10.17	2.73376
10.18	2.74593
10.19	2.70744
10.2	2.70448
10.21	2.68967
10.22	2.71073
10.23	2.72191
10.24	2.73178
10.25	2.74626
10.26	2.71764
10.27	2.72158
10.28	2.71928
10.29	2.7206
10.3	2.7331
10.31	2.71533
10.32	2.72718
10.33	2.73441
10.34	2.71336
10.35	2.71402
10.36	2.73079
10.37	2.74264
10.38	2.71073
10.39	2.70415
10.4	2.7127
10.41	2.71928
10.42	2.68803
10.43	2.71073
10.44	2.71698
10.45	2.71862
10.46	2.71106
10.47	2.68178
10.48	2.68112
10.49	2.70218
10.5	2.70185
10.51	2.72257
10.52	2.69954
10.53	2.68211
10.54	2.70316
10.55	2.73079
10.56	2.7104
10.57	2.71336
10.58	2.73474
10.59	2.70218
10.6	2.72849
10.61	2.71797
10.62	2.7025
10.63	2.69856
10.64	2.71237
10.65	2.71106
10.66	2.70514
10.67	2.74297
10.68	2.72027
10.69	2.70514
10.7	2.72948
10.71	2.73474
10.72	2.70777
10.73	2.67882
10.74	2.7377
10.75	2.70612
10.76	2.72356
10.77	2.73836
10.78	2.72586
10.79	2.73639
10.8	2.68869
10.81	2.71139
10.82	2.74231
10.83	2.72356
10.84	2.69296
10.85	2.72981
10.86	2.73244
10.87	2.74231
10.88	2.71994
10.89	2.67619
10.9	2.69889
10.91	2.73376
10.92	2.71698
10.93	2.70711
10.94	2.70777
10.95	2.71566
10.96	2.70941
10.97	2.74527
10.98	2.71237
10.99	2.72882
11	2.70941
11.01	2.71204
11.02	2.71764
11.03	2.71731
11.04	2.69132
11.05	2.73014
11.06	2.70185
11.07	2.75152
11.08	2.73902
11.09	2.7377
11.1	2.75612
11.11	2.72257
11.12	2.69625
11.13	2.68935
11.14	2.67619
11.15	2.71303
11.16	2.73441
11.17	2.70777
11.18	2.70843
11.19	2.70152
11.2	2.70579
11.21	2.72981
11.22	2.72685
11.23	2.67948
11.24	2.6979
11.25	2.71829
11.26	2.67421
11.27	2.70152
11.28	2.70415
11.29	2.69954
11.3	2.70612
11.31	2.69362
11.32	2.68408
11.33	2.71073
11.34	2.67685
11.35	2.66961
11.36	2.66303
11.37	2.71303
11.38	2.73606
11.39	2.70678
11.4	2.69
11.41	2.74527
11.42	2.74757
11.43	2.74494
11.44	2.69527
11.45	2.69033
11.46	2.72125
11.47	2.70645
11.48	2.70185
11.49	2.71698
11.5	2.71632
11.51	2.74329
11.52	2.72783
11.53	2.70514
11.54	2.70711
11.55	2.70843
11.56	2.71073
11.57	2.74922
11.58	2.69198
11.59	2.69264
11.6	2.72783
11.61	2.69757
11.62	2.68935
11.63	2.72027
11.64	2.71599
11.65	2.71895
11.66	2.7127
11.67	2.72783
11.68	2.73244
11.69	2.67915
11.7	2.70711
11.71	2.71829
11.72	2.70283
11.73	2.70941
11.74	2.71139
11.75	2.69264
11.76	2.72816
11.77	2.67816
11.78	2.67191
11.79	2.69395
11.8	2.72553
11.81	2.72257
11.82	2.6979
11.83	2.71171
11.84	2.67487
11.85	2.68046
11.86	2.69724
11.87	2.73211
11.88	2.70283
11.89	2.69987
11.9	2.72586
11.91	2.72619
11.92	2.72257
11.93	2.70711
11.94	2.70283
11.95	2.70974
11.96	2.70119
11.97	2.70875
11.98	2.70514
11.99	2.69889
12	2.68573
12.01	2.72224
12.02	2.70053
12.03	2.69428
12.04	2.69296
12.05	2.72027
12.06	2.71928
12.07	2.68244
12.08	2.70579
12.09	2.70777
12.1	2.72027
12.11	2.69132
12.12	2.70481
12.13	2.70974
12.14	2.71797
12.15	2.73211
12.16	2.70481
12.17	2.71303
12.18	2.69395
12.19	2.69099
12.2	2.69954
12.21	2.71895
12.22	2.70053
12.23	2.7206
12.24	2.69954
12.25	2.68046
12.26	2.71797
12.27	2.68013
12.28	2.6956
12.29	2.7127
12.3	2.68145
12.31	2.74198
12.32	2.69494
12.33	2.66467
12.34	2.70218
12.35	2.69823
12.36	2.71994
12.37	2.71961
12.38	2.71829
12.39	2.6877
12.4	2.70185
12.41	2.71303
12.42	2.67783
12.43	2.68869
12.44	2.68803
12.45	2.70514
12.46	2.69296
12.47	2.68079
12.48	2.69329
12.49	2.72685
12.5	2.69165
12.51	2.70316
12.52	2.72125
12.53	2.69362
12.54	2.71599
12.55	2.71369
12.56	2.7025
12.57	2.66171
12.58	2.69033
12.59	2.75185
12.6	2.72948
12.61	2.71797
12.62	2.71204
12.63	2.69198
12.64	2.71139
12.65	2.68079
12.66	2.69625
12.67	2.67356
12.68	2.68606
12.69	2.69198
12.7	2.69165
12.71	2.68507
12.72	2.7206
12.73	2.74198
12.74	2.70185
12.75	2.70777
12.76	2.6854
12.77	2.70152
12.78	2.69395
12.79	2.70514
12.8	2.69
12.81	2.69823
12.82	2.66073
12.83	2.66928
12.84	2.66862
12.85	2.69954
12.86	2.70514
12.87	2.69362
12.88	2.74165
12.89	2.70349
12.9	2.68375
12.91	2.67356
12.92	2.69362
12.93	2.68013
12.94	2.69
12.95	2.70514
12.96	2.73474
12.97	2.67224
12.98	2.67487
12.99	2.70744
13	2.70843
13.01	2.6979
13.02	2.70974
13.03	2.70612
13.04	2.71731
13.05	2.70843
13.06	2.69231
13.07	2.68079
13.08	2.69954
13.09	2.67783
13.1	2.69592
13.11	2.67915
13.12	2.7252
13.13	2.69362
13.14	2.70119
13.15	2.70974
13.16	2.68013
13.17	2.68441
13.18	2.69921
13.19	2.71204
13.2	2.71336
13.21	2.69494
13.22	2.69856
13.23	2.69099
13.24	2.69592
13.25	2.69987
13.26	2.7229
13.27	2.70546
13.28	2.7104
13.29	2.71303
13.3	2.69527
13.31	2.68606
13.32	2.71764
13.33	2.71928
13.34	2.68408
13.35	2.68836
13.36	2.67915
13.37	2.715
13.38	2.66961
13.39	2.70579
13.4	2.67717
13.41	2.68507
13.42	2.68474
13.43	2.70711
13.44	2.71665
13.45	2.67421
13.46	2.69823
13.47	2.70645
13.48	2.69494
13.49	2.70349
13.5	2.68013
13.51	2.69921
13.52	2.70382
13.53	2.69856
13.54	2.69921
13.55	2.71171
13.56	2.7331
13.57	2.69033
13.58	2.71402
13.59	2.7081
13.6	2.68342
13.61	2.70612
13.62	2.72849
13.63	2.70086
13.64	2.69395
13.65	2.69
13.66	2.67882
13.67	2.69987
13.68	2.70514
13.69	2.67915
13.7	2.69592
13.71	2.71204
13.72	2.70316
13.73	2.68935
13.74	2.71599
