"BIO-KINE ASCII FILE"
"_COMMENT"	"MOS-500 Spectrometer"
"_COMMENT"	"Kinetics measurement"
"_COMMENT"	"Y Unit : Volt,  X Unit : s"
"_COMMENT"	"Excitation wavelength : 380 nm"
"_COMMENT"	"Fentes bandwidth =  1 nm"
"_COMMENT"	"HV= 1000V"
"_COMMENT"	"Timebase  1 =  .01 s   5001 pts"
"_SFM"	"SFM-400 /S  Advanced mode"
"_SFM"	"Ratio : S1: 2.5, S2: 0, S3: 0, S4: 1"
"_SFM"	"Content : S1: , S2: , S3: , S4:"
"_SFM"	"Concentration : S1: , S2: , S3: , S4:"
"_SFM"	"Total volume : 209 µl  Flow : 3.5 mL/s"
"_SFM"	"Acquisition start :  10 ms before stop"
"_SFM"	"cuve=FC-15, s1=10 ml , s2=10 ml , s3=10 ml , s4=1.9 ml"
"_UNITX"	"s"
"_UNITY"	"Volt"
"_DELTAX"	0
"_DATA"
1e-300	4.45026
0.01	4.46375
0.02	4.45947
0.03	4.55552
0.04	4.65026
0.05	4.65454
0.06	4.72823
0.07	4.73316
0.08	4.71474
0.09	4.77856
0.1	4.71803
0.11	4.76803
0.12	4.74402
0.13	4.79533
0.14	4.79698
0.15	4.75027
0.16	4.7631
0.17	4.83152
0.18	4.81244
0.19	4.77922
0.2	4.8131
0.21	4.77823
0.22	4.80356
0.23	4.80224
0.24	4.83086
0.25	4.75718
0.26	4.73842
0.27	4.76343
0.28	4.82889
0.29	4.76507
0.3	4.79764
0.31	4.78119
0.32	4.80027
0.33	4.77954
0.34	4.7654
0.35	4.8506
0.36	4.81869
0.37	4.80751
0.38	4.78908
0.39	4.79468
0.4	4.80422
0.41	4.7654
0.42	4.79073
0.43	4.80191
0.44	4.76343
0.45	4.77593
0.46	4.78941
0.47	4.79599
0.48	4.74764
0.49	4.76968
0.5	4.7904
0.51	4.77658
0.52	4.79928
0.53	4.77954
0.54	4.74731
0.55	4.85882
0.56	4.82428
0.57	4.78316
0.58	4.76869
0.59	4.82066
0.6	4.79073
0.61	4.73941
0.62	4.75389
0.63	4.76935
0.64	4.79007
0.65	4.79501
0.66	4.7779
0.67	4.77461
0.68	4.75816
0.69	4.75652
0.7	4.73744
0.71	4.76737
0.72	4.77362
0.73	4.74895
0.74	4.7177
0.75	4.7325
0.76	4.74336
0.77	4.75356
0.78	4.73875
0.79	4.73053
0.8	4.72099
0.81	4.72099
0.82	4.71803
0.83	4.71375
0.84	4.7279
0.85	4.71342
0.86	4.72066
0.87	4.70586
0.88	4.69928
0.89	4.78514
0.9	4.79237
0.91	4.74796
0.92	4.73053
0.93	4.74303
0.94	4.72033
0.95	4.70684
0.96	4.67987
0.97	4.71935
0.98	4.73546
0.99	4.70454
1	4.69105
1.01	4.71638
1.02	4.74171
1.03	4.70619
1.04	4.70257
1.05	4.68579
1.06	4.71474
1.07	4.73185
1.08	4.73579
1.09	4.73316
1.1	4.70652
1.11	4.68546
1.12	4.72691
1.13	4.69895
1.14	4.70224
1.15	4.6654
1.16	4.68415
1.17	4.69895
1.18	4.69698
1.19	4.67757
1.2	4.68809
1.21	4.66737
1.22	4.69237
1.23	4.67362
1.24	4.7052
1.25	4.66803
1.26	4.67099
1.27	4.64599
1.28	4.64171
1.29	4.64928
1.3	4.68678
1.31	4.65882
1.32	4.64895
1.33	4.66803
1.34	4.66803
1.35	4.63678
1.36	4.64961
1.37	4.65948
1.38	4.62822
1.39	4.66375
1.4	4.65684
1.41	4.69731
1.42	4.62099
1.43	4.6723
1.44	4.67132
1.45	4.67198
1.46	4.6825
1.47	4.64697
1.48	4.67823
1.49	4.65059
1.5	4.67132
1.51	4.70257
1.52	4.64533
1.53	4.61013
1.54	4.64895
1.55	4.67
1.56	4.69862
1.57	4.66605
1.58	4.6552
1.59	4.6325
1.6	4.64829
1.61	4.64303
1.62	4.63217
1.63	4.62395
1.64	4.63086
1.65	4.64007
1.66	4.65717
1.67	4.64072
1.68	4.62263
1.69	4.64072
1.7	4.66967
1.71	4.67
1.72	4.59204
1.73	4.63217
1.74	4.64434
1.75	4.63086
1.76	4.61243
1.77	4.62
1.78	4.60882
1.79	4.62559
1.8	4.60092
1.81	4.57954
1.82	4.63118
1.83	4.58217
1.84	4.60783
1.85	4.58414
1.86	4.63612
1.87	4.61638
1.88	4.61178
1.89	4.62954
1.9	4.59533
1.91	4.62099
1.92	4.64434
1.93	4.60585
1.94	4.60947
1.95	4.60849
1.96	4.58776
1.97	4.57066
1.98	4.57822
1.99	4.62428
2	4.56046
2.01	4.58941
2.02	4.54171
2.03	4.59697
2.04	4.62658
2.05	4.65421
2.06	4.60553
2.07	4.53447
2.08	4.59928
2.09	4.61474
2.1	4.61474
2.11	4.59895
2.12	4.5996
2.13	4.59368
2.14	4.60684
2.15	4.55026
2.16	4.59368
2.17	4.5996
2.18	4.61079
2.19	4.60355
2.2	4.58645
2.21	4.54862
2.22	4.55717
2.23	4.55191
2.24	4.56539
2.25	4.60849
2.26	4.57888
2.27	4.56112
2.28	4.61408
2.29	4.60684
2.3	4.6052
2.31	4.59763
2.32	4.57822
2.33	4.56342
2.34	4.57296
2.35	4.59434
2.36	4.55914
2.37	4.60421
2.38	4.55092
2.39	4.54204
2.4	4.55092
2.41	4.57493
2.42	4.57526
2.43	4.5973
2.44	4.55651
2.45	4.5746
2.46	4.58283
2.47	4.52362
2.48	4.56572
2.49	4.5802
2.5	4.51276
2.51	4.54434
2.52	4.49401
2.53	4.55158
2.54	4.54895
2.55	4.49631
2.56	4.52592
2.57	4.53085
2.58	4.53875
2.59	4.56013
2.6	4.56177
2.61	4.56605
2.62	4.52296
2.63	4.49006
2.64	4.54006
2.65	4.52493
2.66	4.57493
2.67	4.56145
2.68	4.55684
2.69	4.55914
2.7	4.53644
2.71	4.53677
2.72	4.53283
2.73	4.53809
2.74	4.55223
2.75	4.54401
2.76	4.54138
2.77	4.49861
2.78	4.52493
2.79	4.55421
2.8	4.56112
2.81	4.53973
2.82	4.50256
2.83	4.53151
2.84	4.51144
2.85	4.50125
2.86	4.50454
2.87	4.49368
2.88	4.50914
2.89	4.51802
2.9	4.53973
2.91	4.53151
2.92	4.51572
2.93	4.53316
2.94	4.52131
2.95	4.50783
2.96	4.53809
2.97	4.54993
2.98	4.51901
2.99	4.5325
3	4.53151
3.01	4.48217
3.02	4.49105
3.03	4.51704
3.04	4.51835
3.05	4.52065
3.06	4.53447
3.07	4.5121
3.08	4.51309
3.09	4.51342
3.1	4.47855
3.11	4.53677
3.12	4.50618
3.13	4.52493
3.14	4.52427
3.15	4.50059
3.16	4.4973
3.17	4.49467
3.18	4.53941
3.19	4.5075
3.2	4.47986
3.21	4.45585
3.22	4.50289
3.23	4.50092
3.24	4.50256
3.25	4.47164
3.26	4.52296
3.27	4.48217
3.28	4.48282
3.29	4.46539
3.3	4.47361
3.31	4.44105
3.32	4.47131
3.33	4.46802
3.34	4.4894
3.35	4.49533
3.36	4.46539
3.37	4.45881
3.38	4.48315
3.39	4.46276
3.4	4.4519
3.41	4.49039
3.42	4.53414
3.43	4.51605
3.44	4.48414
3.45	4.46934
3.46	4.49335
3.47	4.47329
3.48	4.46342
3.49	4.495
3.5	4.52789
3.51	4.5246
3.52	4.48546
3.53	4.42756
3.54	4.4473
3.55	4.42295
3.56	4.45552
3.57	4.46967
3.58	4.48184
3.59	4.45651
3.6	4.48973
3.61	4.4894
3.62	4.45388
3.63	4.44171
3.64	4.43611
3.65	4.44664
3.66	4.4621
3.67	4.44072
3.68	4.4598
3.69	4.46473
3.7	4.47625
3.71	4.44796
3.72	4.47822
3.73	4.4848
3.74	4.4575
3.75	4.46605
3.76	4.42855
3.77	4.44203
3.78	4.44763
3.79	4.46638
3.8	4.47986
3.81	4.4348
3.82	4.44302
3.83	4.46539
3.84	4.44335
3.85	4.44335
3.86	4.44993
3.87	4.45651
3.88	4.41999
3.89	4.45388
3.9	4.47493
3.91	4.4519
3.92	4.44138
3.93	4.46473
3.94	4.44434
3.95	4.4371
3.96	4.45289
3.97	4.3917
3.98	4.4167
3.99	4.43019
4	4.44467
4.01	4.41341
4.02	4.3996
4.03	4.42822
4.04	4.3871
4.05	4.4394
4.06	4.44828
4.07	4.41868
4.08	4.42065
4.09	4.46177
4.1	4.43217
4.11	4.43874
4.12	4.44993
4.13	4.41802
4.14	4.40059
4.15	4.3894
4.16	4.41868
4.17	4.41013
4.18	4.43447
4.19	4.45388
4.2	4.44993
4.21	4.4269
4.22	4.40091
4.23	4.42559
4.24	4.38841
4.25	4.41703
4.26	4.40585
4.27	4.37789
4.28	4.47131
4.29	4.45223
4.3	4.39236
4.31	4.41045
4.32	4.41473
4.33	4.40848
4.34	4.39203
4.35	4.42592
4.36	4.41111
4.37	4.41341
4.38	4.40881
4.39	4.41703
4.4	4.40815
4.41	4.37493
4.42	4.3894
4.43	4.38545
4.44	4.37855
4.45	4.41341
4.46	4.41999
4.47	4.43513
4.48	4.39598
4.49	4.41966
4.5	4.4394
4.51	4.41407
4.52	4.41638
4.53	4.4167
4.54	4.37887
4.55	4.38578
4.56	4.38151
4.57	4.42657
4.58	4.4042
4.59	4.40815
4.6	4.41276
4.61	4.38776
4.62	4.42756
4.63	4.41374
4.64	4.38414
4.65	4.37526
4.66	4.41045
4.67	4.40585
4.68	4.36473
4.69	4.39697
4.7	4.39894
4.71	4.39236
4.72	4.39499
4.73	4.40091
4.74	4.38677
4.75	4.38677
4.76	4.37953
4.77	4.39664
4.78	4.40585
4.79	4.3894
4.8	4.39499
4.81	4.38052
4.82	4.38611
4.83	4.35058
4.84	4.37065
4.85	4.3519
4.86	4.37032
4.87	4.3621
4.88	4.36966
4.89	4.35651
4.9	4.34006
4.91	4.39006
4.92	4.38841
4.93	4.3769
4.94	4.35618
4.95	4.35552
4.96	4.37131
4.97	4.38282
4.98	4.39466
4.99	4.34795
5	4.38381
5.01	4.33414
5.02	4.37624
5.03	4.38118
5.04	4.38644
5.05	4.34697
5.06	4.36966
5.07	4.35058
5.08	4.35914
5.09	4.39532
5.1	4.36111
5.11	4.3917
5.12	4.34368
5.13	4.34203
5.14	4.34664
5.15	4.3723
5.16	4.4042
5.17	4.3917
5.18	4.35618
5.19	4.34499
5.2	4.38019
5.21	4.3371
5.22	4.32854
5.23	4.36802
5.24	4.34433
5.25	4.32887
5.26	4.34203
5.27	4.32427
5.28	4.32098
5.29	4.33315
5.3	4.33414
5.31	4.37131
5.32	4.35223
5.33	4.32854
5.34	4.35256
5.35	4.36243
5.36	4.39631
5.37	4.38381
5.38	4.34433
5.39	4.30354
5.4	4.31769
5.41	4.33118
5.42	4.33216
5.43	4.34269
5.44	4.36637
5.45	4.3644
5.46	4.34927
5.47	4.35453
5.48	4.33019
5.49	4.33973
5.5	4.33907
5.51	4.34137
5.52	4.34302
5.53	4.34039
5.54	4.31933
5.55	4.34236
5.56	4.3371
5.57	4.3496
5.58	4.32394
5.59	4.30387
5.6	4.33545
5.61	4.36144
5.62	4.34795
5.63	4.35256
5.64	4.31045
5.65	4.34795
5.66	4.35651
5.67	4.34762
5.68	4.31012
5.69	4.32164
5.7	4.34466
5.71	4.3065
5.72	4.29532
5.73	4.32887
5.74	4.30256
5.75	4.34861
5.76	4.36341
5.77	4.30552
5.78	4.33019
5.79	4.32525
5.8	4.33249
5.81	4.32032
5.82	4.3394
5.83	4.3246
5.84	4.31473
5.85	4.30354
5.86	4.29696
5.87	4.33052
5.88	4.32493
5.89	4.35256
5.9	4.31835
5.91	4.34664
5.92	4.35354
5.93	4.31012
5.94	4.31506
5.95	4.31966
5.96	4.31933
5.97	4.28315
5.98	4.29335
5.99	4.31637
6	4.30354
6.01	4.31242
6.02	4.32821
6.03	4.25617
6.04	4.31012
6.05	4.30979
6.06	4.32361
6.07	4.31177
6.08	4.31835
6.09	4.29565
6.1	4.34137
6.11	4.34993
6.12	4.30617
6.13	4.31473
6.14	4.33545
6.15	4.30848
6.16	4.29729
6.17	4.3315
6.18	4.31867
6.19	4.3065
6.2	4.3144
6.21	4.28611
6.22	4.26966
6.23	4.31341
6.24	4.31045
6.25	4.27854
6.26	4.29565
6.27	4.29006
6.28	4.29269
6.29	4.3292
6.3	4.27657
6.31	4.30486
6.32	4.28381
6.33	4.30848
6.34	4.27854
6.35	4.26374
6.36	4.26012
6.37	4.27032
6.38	4.29532
6.39	4.294
6.4	4.29038
6.41	4.30058
6.42	4.24696
6.43	4.29729
6.44	4.30782
6.45	4.28315
6.46	4.31604
6.47	4.30683
6.48	4.28808
6.49	4.28512
6.5	4.29565
6.51	4.28282
6.52	4.25683
6.53	4.29269
6.54	4.31111
6.55	4.30585
6.56	4.28611
6.57	4.27163
6.58	4.30091
6.59	4.32427
6.6	4.29663
6.61	4.28677
6.62	4.25848
6.63	4.26834
6.64	4.3246
6.65	4.30683
6.66	4.27854
6.67	4.28348
6.68	4.30321
6.69	4.28611
6.7	4.28709
6.71	4.26966
6.72	4.23808
6.73	4.29565
6.74	4.31144
6.75	4.32328
6.76	4.2542
6.77	4.24137
6.78	4.29071
6.79	4.30223
6.8	4.29861
6.81	4.25288
6.82	4.28446
6.83	4.27887
6.84	4.29663
6.85	4.26177
6.86	4.25387
6.87	4.28545
6.88	4.25519
6.89	4.31308
6.9	4.26374
6.91	4.24828
6.92	4.26341
6.93	4.28117
6.94	4.294
6.95	4.25716
6.96	4.31539
6.97	4.26505
6.98	4.29137
6.99	4.22953
7	4.27295
7.01	4.25913
7.02	4.26275
7.03	4.27953
7.04	4.28446
7.05	4.26637
7.06	4.24334
7.07	4.23907
7.08	4.26637
7.09	4.27657
7.1	4.25683
7.11	4.25519
7.12	4.2394
7.13	4.2338
7.14	4.25223
7.15	4.25848
7.16	4.26242
7.17	4.26078
7.18	4.26111
7.19	4.23808
7.2	4.24433
7.21	4.26012
7.22	4.21472
7.23	4.24203
7.24	4.17492
7.25	4.26834
7.26	4.29762
7.27	4.26769
7.28	4.2463
7.29	4.23019
7.3	4.26933
7.31	4.28973
7.32	4.25058
7.33	4.30749
7.34	4.21308
7.35	4.26177
7.36	4.25782
7.37	4.23249
7.38	4.2519
7.39	4.24203
7.4	4.2292
7.41	4.2315
7.42	4.25584
7.43	4.29269
7.44	4.24203
7.45	4.24137
7.46	4.2667
7.47	4.29104
7.48	4.2269
7.49	4.2667
7.5	4.23019
7.51	4.23742
7.52	4.27624
7.53	4.24104
7.54	4.2269
7.55	4.22394
7.56	4.26703
7.57	4.22624
7.58	4.219
7.59	4.21176
7.6	4.20453
7.61	4.21999
7.62	4.23644
7.63	4.25913
7.64	4.24959
7.65	4.22558
7.66	4.23973
7.67	4.24466
7.68	4.26769
7.69	4.23973
7.7	4.23282
7.71	4.25058
7.72	4.24071
7.73	4.23841
7.74	4.22986
7.75	4.22163
7.76	4.2088
7.77	4.23183
7.78	4.22821
7.79	4.22755
7.8	4.22591
7.81	4.21308
7.82	4.19466
7.83	4.2065
7.84	4.18972
7.85	4.24071
7.86	4.22755
7.87	4.23019
7.88	4.23644
7.89	4.20913
7.9	4.22295
7.91	4.2338
7.92	4.23512
7.93	4.21143
7.94	4.22426
7.95	4.21538
7.96	4.21604
7.97	4.20124
7.98	4.20189
7.99	4.2269
8	4.20321
8.01	4.21768
8.02	4.21111
8.03	4.22821
8.04	4.26275
8.05	4.21242
8.06	4.21703
8.07	4.19893
8.08	4.21933
8.09	4.24236
8.1	4.22854
8.11	4.2042
8.12	4.2088
8.13	4.21176
8.14	4.21966
8.15	4.24433
8.16	4.23183
8.17	4.219
8.18	4.24367
8.19	4.2269
8.2	4.18446
8.21	4.23808
8.22	4.23315
8.23	4.21275
8.24	4.2394
8.25	4.22394
8.26	4.23019
8.27	4.23216
8.28	4.19959
8.29	4.22624
8.3	4.24598
8.31	4.1861
8.32	4.17755
8.33	4.21242
8.34	4.23808
8.35	4.24959
8.36	4.20815
8.37	4.19433
8.38	4.20453
8.39	4.19828
8.4	4.22821
8.41	4.17722
8.42	4.22821
8.43	4.20518
8.44	4.20486
8.45	4.18084
8.46	4.22558
8.47	4.23117
8.48	4.22854
8.49	4.22394
8.5	4.2065
8.51	4.20551
8.52	4.23051
8.53	4.24598
8.54	4.2315
8.55	4.20584
8.56	4.24663
8.57	4.21374
8.58	4.17525
8.59	4.20518
8.6	4.19301
8.61	4.20058
8.62	4.23249
8.63	4.20387
8.64	4.17887
8.65	4.19696
8.66	4.20913
8.67	4.20255
8.68	4.19367
8.69	4.17295
8.7	4.17689
8.71	4.24038
8.72	4.2167
8.73	4.22196
8.74	4.2042
8.75	4.17689
8.76	4.16308
8.77	4.19729
8.78	4.2144
8.79	4.18939
8.8	4.16867
8.81	4.21242
8.82	4.22262
8.83	4.20255
8.84	4.20584
8.85	4.16604
8.86	4.20387
8.87	4.2042
8.88	4.21242
8.89	4.16571
8.9	4.1667
8.91	4.15781
8.92	4.13545
8.93	4.17262
8.94	4.24762
8.95	4.18512
8.96	4.21176
8.97	4.19038
8.98	4.23019
8.99	4.21801
9	4.18479
9.01	4.17722
9.02	4.20453
9.03	4.22163
9.04	4.19433
9.05	4.16045
9.06	4.16801
9.07	4.18643
9.08	4.1815
9.09	4.15749
9.1	4.14827
9.11	4.18018
9.12	4.21834
9.13	4.20157
9.14	4.20321
9.15	4.16143
9.16	4.20288
9.17	4.21045
9.18	4.18051
9.19	4.20189
9.2	4.20979
9.21	4.19071
9.22	4.1861
9.23	4.17985
9.24	4.17788
9.25	4.2042
9.26	4.19433
9.27	4.18183
9.28	4.21867
9.29	4.14729
9.3	4.14202
9.31	4.18479
9.32	4.1611
9.33	4.18314
9.34	4.144
9.35	4.15814
9.36	4.16801
9.37	4.17459
9.38	4.15781
9.39	4.16933
9.4	4.16834
9.41	4.14268
9.42	4.18709
9.43	4.16472
9.44	4.16012
9.45	4.21078
9.46	4.16472
9.47	4.18282
9.48	4.21111
9.49	4.17262
9.5	4.17854
9.51	4.18775
9.52	4.18183
9.53	4.19203
9.54	4.15518
9.55	4.20551
9.56	4.1463
9.57	4.15683
9.58	4.17722
9.59	4.14992
9.6	4.16078
9.61	4.17262
9.62	4.19104
9.63	4.19137
9.64	4.15913
9.65	4.15452
9.66	4.14499
9.67	4.13248
9.68	4.15156
9.69	4.17262
9.7	4.11439
9.71	4.14696
9.72	4.1542
9.73	4.15255
9.74	4.14301
9.75	4.12755
9.76	4.14696
9.77	4.17722
9.78	4.1736
9.79	4.14663
9.8	4.13676
9.81	4.16012
9.82	4.169
9.83	4.18841
9.84	4.16703
9.85	4.17821
9.86	4.14235
9.87	4.19334
9.88	4.17689
9.89	4.19762
9.9	4.17591
9.91	4.17064
9.92	4.15716
9.93	4.19992
9.94	4.16999
9.95	4.14202
9.96	4.14564
9.97	4.17229
9.98	4.14433
9.99	4.18314
10	4.18775
10.01	4.13545
10.02	4.1713
10.03	4.12097
10.04	4.16275
10.05	4.19071
10.06	4.15946
10.07	4.13545
10.08	4.13084
10.09	4.14893
10.1	4.09202
10.11	4.13413
10.12	4.13479
10.13	4.14729
10.14	4.12755
10.15	4.12196
10.16	4.14499
10.17	4.17591
10.18	4.12163
10.19	4.11571
10.2	4.13643
10.21	4.17821
10.22	4.16275
10.23	4.1111
10.24	4.12163
10.25	4.16374
10.26	4.15124
10.27	4.11966
10.28	4.1315
10.29	4.13117
10.3	4.12031
10.31	4.14268
10.32	4.13051
10.33	4.19893
10.34	4.17031
10.35	4.15847
10.36	4.12656
10.37	4.14301
10.38	4.12755
10.39	4.16801
10.4	4.13577
10.41	4.1338
10.42	4.1065
10.43	4.1588
10.44	4.13545
10.45	4.11768
10.46	4.15551
10.47	4.13413
10.48	4.14762
10.49	4.08709
10.5	4.10354
10.51	4.14301
10.52	4.14827
10.53	4.11998
10.54	4.1361
10.55	4.1236
10.56	4.1315
10.57	4.15781
10.58	4.14992
10.59	4.12492
10.6	4.15222
10.61	4.15387
10.62	4.14334
10.63	4.13314
10.64	4.13084
10.65	4.13808
10.66	4.12591
10.67	4.12722
10.68	4.16176
10.69	4.14959
10.7	4.12854
10.71	4.17657
10.72	4.14499
10.73	4.15321
10.74	4.12163
10.75	4.13413
10.76	4.13051
10.77	4.14071
10.78	4.10189
10.79	4.1088
10.8	4.14499
10.81	4.1565
10.82	4.15847
10.83	4.11801
10.84	4.11702
10.85	4.14038
10.86	4.13742
10.87	4.17163
10.88	4.1213
10.89	4.13808
10.9	4.10847
10.91	4.11176
10.92	4.12952
10.93	4.08939
10.94	4.08446
10.95	4.10979
10.96	4.11801
10.97	4.09433
10.98	4.08775
10.99	4.10222
11	4.12327
11.01	4.15979
11.02	4.12097
11.03	4.1315
11.04	4.12295
11.05	4.13084
11.06	4.10485
11.07	4.09696
11.08	4.13874
11.09	4.16505
11.1	4.14663
11.11	4.15124
11.12	4.14071
11.13	4.14531
11.14	4.13314
11.15	4.09794
11.16	4.12492
11.17	4.13874
11.18	4.14959
11.19	4.11604
11.2	4.13676
11.21	4.13117
11.22	4.11933
11.23	4.14268
11.24	4.13314
11.25	4.12656
11.26	4.17262
11.27	4.12525
11.28	4.13479
11.29	4.1463
11.3	4.16867
11.31	4.12722
11.32	4.15354
11.33	4.16735
11.34	4.16735
11.35	4.13512
11.36	4.11341
11.37	4.09696
11.38	4.11505
11.39	4.12985
11.4	4.13972
11.41	4.12327
11.42	4.1588
11.43	4.13577
11.44	4.1486
11.45	4.15913
11.46	4.11209
11.47	4.07689
11.48	4.12097
11.49	4.11966
11.5	4.12459
11.51	4.16045
11.52	4.11801
11.53	4.1292
11.54	4.11768
11.55	4.1463
11.56	4.11768
11.57	4.13874
11.58	4.12262
11.59	4.09794
11.6	4.09762
11.61	4.11801
11.62	4.11867
11.63	4.11275
11.64	4.12262
11.65	4.16604
11.66	4.11077
11.67	4.10979
11.68	4.11801
11.69	4.094
11.7	4.09696
11.71	4.14926
11.72	4.12163
11.73	4.13413
11.74	4.14235
11.75	4.1315
11.76	4.09827
11.77	4.12229
11.78	4.08413
11.79	4.10748
11.8	4.1236
11.81	4.13841
11.82	4.12854
11.83	4.12821
11.84	4.11702
11.85	4.1088
11.86	4.13183
11.87	4.16143
11.88	4.12295
11.89	4.11439
11.9	4.12788
11.91	4.08939
11.92	4.0884
11.93	4.11242
11.94	4.0838
11.95	4.12196
11.96	4.13117
11.97	4.12887
11.98	4.13413
11.99	4.12887
12	4.14071
12.01	4.12031
12.02	4.07097
12.03	4.08808
12.04	4.13413
12.05	4.15946
12.06	4.12887
12.07	4.12689
12.08	4.09202
12.09	4.10781
12.1	4.07755
12.11	4.08808
12.12	4.14597
12.13	4.10716
12.14	4.11998
12.15	4.09301
12.16	4.06965
12.17	4.09893
12.18	4.09893
12.19	4.0986
12.2	4.094
12.21	4.07854
12.22	4.09498
12.23	4.11933
12.24	4.10979
12.25	4.09992
12.26	4.13347
12.27	4.07163
12.28	4.09827
12.29	4.11505
12.3	4.11275
12.31	4.07229
12.32	4.12196
12.33	4.11439
12.34	4.12097
12.35	4.094
12.36	4.09433
12.37	4.11966
12.38	4.1236
12.39	4.07623
12.4	4.09301
12.41	4.12229
12.42	4.12821
12.43	4.08511
12.44	4.07623
12.45	4.09465
12.46	4.11242
12.47	4.09926
12.48	4.09959
12.49	4.07886
12.5	4.09926
12.51	4.07261
12.52	4.10748
12.53	4.09663
12.54	4.14466
12.55	4.10387
12.56	4.10419
12.57	4.09137
12.58	4.11834
12.59	4.13413
12.6	4.1213
12.61	4.13775
12.62	4.12722
12.63	4.09433
12.64	4.06702
12.65	4.12656
12.66	4.12821
12.67	4.09827
12.68	4.11406
12.69	4.15617
12.7	4.10716
12.71	4.08873
12.72	4.094
12.73	4.119
12.74	4.11077
12.75	4.11604
12.76	4.13281
12.77	4.094
12.78	4.08314
12.79	4.08018
12.8	4.09564
12.81	4.09301
12.82	4.12163
12.83	4.10485
12.84	4.11077
12.85	4.09663
12.86	4.08117
12.87	4.08479
12.88	4.06965
12.89	4.07558
12.9	4.06373
12.91	4.08511
12.92	4.10814
12.93	4.11571
12.94	4.08775
12.95	4.10025
12.96	4.09268
12.97	4.07064
12.98	4.08544
12.99	4.12393
13	4.10156
13.01	4.12229
13.02	4.10617
13.03	4.1213
13.04	4.13117
13.05	4.1088
13.06	4.07097
13.07	4.06768
13.08	4.05025
13.09	4.07261
13.1	4.07722
13.11	4.1009
13.12	4.0736
13.13	4.06011
13.14	4.1065
13.15	4.07229
13.16	4.069
13.17	4.11735
13.18	4.04926
13.19	4.06702
13.2	4.06768
13.21	4.09433
13.22	4.08742
13.23	4.07558
13.24	4.10946
13.25	4.10485
13.26	4.06669
13.27	4.08051
13.28	4.06505
13.29	4.07854
13.3	4.10584
13.31	4.11768
13.32	4.06834
13.33	4.07656
13.34	4.07788
13.35	4.12295
13.36	4.07064
13.37	4.07196
13.38	4.11077
13.39	4.11077
13.4	4.10452
13.41	4.11012
13.42	4.06636
13.43	4.08972
13.44	4.07821
13.45	4.0861
13.46	4.11044
13.47	4.03939
13.48	4.04169
13.49	4.08084
13.5	4.069
13.51	4.08446
13.52	4.069
13.53	4.09367
13.54	4.06768
13.55	4.13676
13.56	4.08511
13.57	4.08248
13.58	4.09893
13.59	4.1111
13.6	4.07097
13.61	4.08248
13.62	4.0759
13.63	4.07788
13.64	4.06209
13.65	4.07788
13.66	4.12689
13.67	4.11242
13.68	4.06143
13.69	4.03906
13.7	4.07459
13.71	4.07623
13.72	4.06932
13.73	4.09597
13.74	4.07064
13.75	4.07426
13.76	4.06998
