"BIO-KINE ASCII FILE"
"_COMMENT"	"MOS-500 Spectrometer"
"_COMMENT"	"Kinetics measurement"
"_COMMENT"	"Y Unit : Volt,  X Unit : s"
"_COMMENT"	"Excitation wavelength : 380 nm"
"_COMMENT"	"Fentes bandwidth =  1 nm"
"_COMMENT"	"HV= 1000V"
"_COMMENT"	"Timebase  1 =  .01 s   3001 pts"
"_SFM"	"SFM-400 /S  Advanced mode"
"_SFM"	"Ratio : S1: 2.5, S2: 0, S3: 0, S4: 1"
"_SFM"	"Content : S1: , S2: , S3: , S4:"
"_SFM"	"Concentration : S1: , S2: , S3: , S4:"
"_SFM"	"Total volume : 209 µl  Flow : 3.5 mL/s"
"_SFM"	"Acquisition start :  10 ms before stop"
"_SFM"	"cuve=FC-15, s1=10 ml , s2=10 ml , s3=10 ml , s4=1.9 ml"
"_UNITX"	"s"
"_UNITY"	"Volt"
"_DELTAX"	0
"_DATA"
1e-300	2.45052
0.01	2.45809
0.02	2.50677
0.03	2.57224
0.04	2.55283
0.05	2.58309
0.06	2.63671
0.07	2.61566
0.08	2.62224
0.09	2.66434
0.1	2.65974
0.11	2.6604
0.12	2.65119
0.13	2.62619
0.14	2.65316
0.15	2.66599
0.16	2.65612
0.17	2.64921
0.18	2.67125
0.19	2.66599
0.2	2.70218
0.21	2.68671
0.22	2.70744
0.23	2.70678
0.24	2.68639
0.25	2.68441
0.26	2.69428
0.27	2.67454
0.28	2.70514
0.29	2.70382
0.3	2.67027
0.31	2.67652
0.32	2.68836
0.33	2.67882
0.34	2.68671
0.35	2.67224
0.36	2.68178
0.37	2.67652
0.38	2.67849
0.39	2.69494
0.4	2.70843
0.41	2.72553
0.42	2.69329
0.43	2.71533
0.44	2.68112
0.45	2.68441
0.46	2.67652
0.47	2.69889
0.48	2.70645
0.49	2.67323
0.5	2.72948
0.51	2.72783
0.52	2.71007
0.53	2.69461
0.54	2.65711
0.55	2.67948
0.56	2.69264
0.57	2.7127
0.58	2.70481
0.59	2.70908
0.6	2.68277
0.61	2.70678
0.62	2.69691
0.63	2.68704
0.64	2.7081
0.65	2.65678
0.66	2.67454
0.67	2.72586
0.68	2.72323
0.69	2.7104
0.7	2.69428
0.71	2.69856
0.72	2.7025
0.73	2.6979
0.74	2.67487
0.75	2.70843
0.76	2.69296
0.77	2.665
0.78	2.69329
0.79	2.70152
0.8	2.70843
0.81	2.7206
0.82	2.69362
0.83	2.68704
0.84	2.70579
0.85	2.69099
0.86	2.6706
0.87	2.70316
0.88	2.70908
0.89	2.7104
0.9	2.71665
0.91	2.68671
0.92	2.69494
0.93	2.71829
0.94	2.71862
0.95	2.70843
0.96	2.68671
0.97	2.69099
0.98	2.70777
0.99	2.68869
1	2.67191
1.01	2.68211
1.02	2.70053
1.03	2.68441
1.04	2.7104
1.05	2.70415
1.06	2.69099
1.07	2.7104
1.08	2.7104
1.09	2.6627
1.1	2.67783
1.11	2.69
1.12	2.69264
1.13	2.67816
1.14	2.69494
1.15	2.7229
1.16	2.68211
1.17	2.66467
1.18	2.68342
1.19	2.67323
1.2	2.67849
1.21	2.72948
1.22	2.71829
1.23	2.69165
1.24	2.69
1.25	2.69395
1.26	2.67553
1.27	2.67125
1.28	2.68639
1.29	2.70448
1.3	2.67652
1.31	2.65481
1.32	2.69494
1.33	2.68573
1.34	2.69165
1.35	2.68573
1.36	2.69395
1.37	2.69921
1.38	2.71731
1.39	2.70283
1.4	2.6752
1.41	2.6956
1.42	2.67487
1.43	2.68474
1.44	2.70283
1.45	2.66237
1.46	2.64823
1.47	2.67553
1.48	2.67849
1.49	2.70119
1.5	2.68836
1.51	2.69198
1.52	2.70349
1.53	2.70316
1.54	2.6877
1.55	2.70218
1.56	2.69461
1.57	2.69296
1.58	2.64461
1.59	2.66566
1.6	2.67487
1.61	2.63934
1.62	2.67224
1.63	2.67388
1.64	2.69691
1.65	2.6706
1.66	2.68967
1.67	2.67882
1.68	2.68441
1.69	2.68408
1.7	2.69921
1.71	2.66895
1.72	2.69856
1.73	2.69132
1.74	2.69296
1.75	2.68211
1.76	2.67356
1.77	2.70514
1.78	2.66171
1.79	2.66402
1.8	2.68935
1.81	2.69296
1.82	2.69329
1.83	2.66928
1.84	2.69823
1.85	2.6775
1.86	2.66961
1.87	2.68474
1.88	2.68967
1.89	2.67487
1.9	2.66928
1.91	2.68606
1.92	2.6979
1.93	2.69395
1.94	2.67882
1.95	2.68869
1.96	2.69527
1.97	2.67257
1.98	2.67356
1.99	2.6275
2	2.66994
2.01	2.66632
2.02	2.66599
2.03	2.66961
2.04	2.68342
2.05	2.68079
2.06	2.68013
2.07	2.67092
2.08	2.66336
2.09	2.67356
2.1	2.65448
2.11	2.67092
2.12	2.69658
2.13	2.65481
2.14	2.66566
2.15	2.69165
2.16	2.63112
2.17	2.63869
2.18	2.65382
2.19	2.65645
2.2	2.67619
2.21	2.66763
2.22	2.66928
2.23	2.67553
2.24	2.66632
2.25	2.665
2.26	2.71435
2.27	2.66336
2.28	2.64362
2.29	2.67323
2.3	2.66829
2.31	2.67652
2.32	2.66928
2.33	2.67257
2.34	2.69198
2.35	2.72191
2.36	2.70448
2.37	2.69329
2.38	2.71533
2.39	2.68671
2.4	2.68869
2.41	2.715
2.42	2.69592
2.43	2.65645
2.44	2.64329
2.45	2.65481
2.46	2.66829
2.47	2.66533
2.48	2.69954
2.49	2.665
2.5	2.68079
2.51	2.66303
2.52	2.66073
2.53	2.66566
2.54	2.64724
2.55	2.66632
2.56	2.66204
2.57	2.66994
2.58	2.6956
2.59	2.69099
2.6	2.66599
2.61	2.69395
2.62	2.67849
2.63	2.68375
2.64	2.65546
2.65	2.69231
2.66	2.68967
2.67	2.66698
2.68	2.65119
2.69	2.67421
2.7	2.65086
2.71	2.69889
2.72	2.69527
2.73	2.6877
2.74	2.68474
2.75	2.69329
2.76	2.66928
2.77	2.65711
2.78	2.68869
2.79	2.66994
2.8	2.66467
2.81	2.70908
2.82	2.67783
2.83	2.67717
2.84	2.67849
2.85	2.70777
2.86	2.67191
2.87	2.67027
2.88	2.65645
2.89	2.65744
2.9	2.64954
2.91	2.66434
2.92	2.69231
2.93	2.63573
2.94	2.62454
2.95	2.64954
2.96	2.68244
2.97	2.65678
2.98	2.63737
2.99	2.66204
3	2.65283
3.01	2.65513
3.02	2.65513
3.03	2.6752
3.04	2.66237
3.05	2.64658
3.06	2.665
3.07	2.67257
3.08	2.64592
3.09	2.68639
3.1	2.6979
3.11	2.67191
3.12	2.68573
3.13	2.66862
3.14	2.66796
3.15	2.6479
3.16	2.67586
3.17	2.66402
3.18	2.67816
3.19	2.66336
3.2	2.64329
3.21	2.64461
3.22	2.68244
3.23	2.69757
3.24	2.67652
3.25	2.67487
3.26	2.64592
3.27	2.65711
3.28	2.64592
3.29	2.65184
3.3	2.63704
3.31	2.63671
3.32	2.64823
3.33	2.66731
3.34	2.67323
3.35	2.67717
3.36	2.6831
3.37	2.64099
3.38	2.65382
3.39	2.68803
3.4	2.6729
3.41	2.65119
3.42	2.64658
3.43	2.66369
3.44	2.66336
3.45	2.68178
3.46	2.66467
3.47	2.64033
3.48	2.65349
3.49	2.65283
3.5	2.65119
3.51	2.6706
3.52	2.67158
3.53	2.6525
3.54	2.63244
3.55	2.63737
3.56	2.65184
3.57	2.65908
3.58	2.66928
3.59	2.64395
3.6	2.65053
3.61	2.66106
3.62	2.64954
3.63	2.65941
3.64	2.65842
3.65	2.67388
3.66	2.69264
3.67	2.67158
3.68	2.66763
3.69	2.64362
3.7	2.6354
3.71	2.65481
3.72	2.62355
3.73	2.65842
3.74	2.7081
3.75	2.68639
3.76	2.62717
3.77	2.63375
3.78	2.66566
3.79	2.66204
3.8	2.63178
3.81	2.64954
3.82	2.68671
3.83	2.66698
3.84	2.69099
3.85	2.68639
3.86	2.63605
3.87	2.6604
3.88	2.63605
3.89	2.6525
3.9	2.65974
3.91	2.68013
3.92	2.6525
3.93	2.64559
3.94	2.65842
3.95	2.65415
3.96	2.67356
3.97	2.6604
3.98	2.62421
3.99	2.65941
4	2.67257
4.01	2.64757
4.02	2.62191
4.03	2.64165
4.04	2.63309
4.05	2.68013
4.06	2.69
4.07	2.67685
4.08	2.68836
4.09	2.67783
4.1	2.65612
4.11	2.61434
4.12	2.65382
4.13	2.69132
4.14	2.65316
4.15	2.63803
4.16	2.64
4.17	2.6831
4.18	2.6604
4.19	2.65481
4.2	2.67553
4.21	2.67882
4.22	2.64296
4.23	2.62783
4.24	2.64329
4.25	2.66566
4.26	2.63342
4.27	2.64527
4.28	2.64888
4.29	2.6502
4.3	2.68737
4.31	2.65283
4.32	2.65283
4.33	2.65546
4.34	2.61994
4.35	2.6627
4.36	2.67487
4.37	2.65119
4.38	2.68046
4.39	2.65415
4.4	2.64461
4.41	2.64987
4.42	2.63803
4.43	2.61665
4.44	2.63474
4.45	2.63573
4.46	2.64395
4.47	2.69362
4.48	2.67882
4.49	2.64527
4.5	2.64362
4.51	2.65119
4.52	2.65711
4.53	2.65053
4.54	2.69954
4.55	2.65349
4.56	2.63309
4.57	2.68112
4.58	2.64691
4.59	2.66599
4.6	2.70152
4.61	2.67882
4.62	2.6354
4.63	2.64033
4.64	2.63573
4.65	2.65415
4.66	2.67191
4.67	2.65152
4.68	2.66665
4.69	2.67685
4.7	2.64395
4.71	2.64198
4.72	2.63211
4.73	2.63507
4.74	2.65119
4.75	2.63441
4.76	2.66434
4.77	2.66007
4.78	2.66336
4.79	2.68277
4.8	2.66204
4.81	2.61928
4.82	2.64395
4.83	2.66467
4.84	2.65612
4.85	2.65481
4.86	2.63507
4.87	2.64954
4.88	2.66829
4.89	2.65678
4.9	2.63474
4.91	2.65612
4.92	2.64132
4.93	2.64033
4.94	2.6706
4.95	2.64855
4.96	2.66237
4.97	2.67619
4.98	2.65382
4.99	2.62553
5	2.64362
5.01	2.63803
5.02	2.64
5.03	2.63605
5.04	2.65086
5.05	2.68244
5.06	2.68145
5.07	2.65086
5.08	2.64
5.09	2.67027
5.1	2.68441
5.11	2.61829
5.12	2.63605
5.13	2.67323
5.14	2.67125
5.15	2.665
5.16	2.62586
5.17	2.64592
5.18	2.64395
5.19	2.66533
5.2	2.6354
5.21	2.62323
5.22	2.64033
5.23	2.6525
5.24	2.62619
5.25	2.62651
5.26	2.65217
5.27	2.64099
5.28	2.63375
5.29	2.65809
5.3	2.67981
5.31	2.66928
5.32	2.6775
5.33	2.65217
5.34	2.6752
5.35	2.66796
5.36	2.65415
5.37	2.64658
5.38	2.63638
5.39	2.67027
5.4	2.64987
5.41	2.61895
5.42	2.67257
5.43	2.65349
5.44	2.66204
5.45	2.65974
5.46	2.65184
5.47	2.62783
5.48	2.64559
5.49	2.65481
5.5	2.66434
5.51	2.68836
5.52	2.65481
5.53	2.66994
5.54	2.64921
5.55	2.64921
5.56	2.64921
5.57	2.65481
5.58	2.65908
5.59	2.64691
5.6	2.6627
5.61	2.62948
5.62	2.64724
5.63	2.64625
5.64	2.65382
5.65	2.65086
5.66	2.64625
5.67	2.62323
5.68	2.65678
5.69	2.64658
5.7	2.65448
5.71	2.65217
5.72	2.65481
5.73	2.65744
5.74	2.64987
5.75	2.65184
5.76	2.64428
5.77	2.65875
5.78	2.64921
5.79	2.61697
5.8	2.63145
5.81	2.6377
5.82	2.64823
5.83	2.64757
5.84	2.62487
5.85	2.63408
5.86	2.6423
5.87	2.65415
5.88	2.63013
5.89	2.62224
5.9	2.63869
5.91	2.64855
5.92	2.63869
5.93	2.63474
5.94	2.62257
5.95	2.64592
5.96	2.66138
5.97	2.63112
5.98	2.62388
5.99	2.61928
6	2.64296
6.01	2.64855
6.02	2.66731
6.03	2.62454
6.04	2.61336
6.05	2.60151
6.06	2.58737
6.07	2.62158
6.08	2.62487
6.09	2.60579
6.1	2.64757
6.11	2.65941
6.12	2.64165
6.13	2.61105
6.14	2.65283
6.15	2.6275
6.16	2.63244
6.17	2.62191
6.18	2.64855
6.19	2.64855
6.2	2.60513
6.21	2.63309
6.22	2.63638
6.23	2.67027
6.24	2.65152
6.25	2.63178
6.26	2.63507
6.27	2.64066
6.28	2.64428
6.29	2.6127
6.3	2.62125
6.31	2.6127
6.32	2.64198
6.33	2.63869
6.34	2.6706
6.35	2.65184
6.36	2.63276
6.37	2.64033
6.38	2.66994
6.39	2.60513
6.4	2.63573
6.41	2.6298
6.42	2.62882
6.43	2.63342
6.44	2.61533
6.45	2.63902
6.46	2.65744
6.47	2.64362
6.48	2.64855
6.49	2.6604
6.5	2.63276
6.51	2.60941
6.52	2.62783
6.53	2.61763
6.54	2.63869
6.55	2.63046
6.56	2.66566
6.57	2.66007
6.58	2.6275
6.59	2.63211
6.6	2.61961
6.61	2.64296
6.62	2.65744
6.63	2.62355
6.64	2.64625
6.65	2.63474
6.66	2.63244
6.67	2.64658
6.68	2.63244
6.69	2.6502
6.7	2.63934
6.71	2.6275
6.72	2.64954
6.73	2.63046
6.74	2.65217
6.75	2.64954
6.76	2.61796
6.77	2.64757
6.78	2.59691
6.79	2.59691
6.8	2.64954
6.81	2.62619
6.82	2.61994
6.83	2.63605
6.84	2.63507
6.85	2.64329
6.86	2.64198
6.87	2.6275
6.88	2.62849
6.89	2.63342
6.9	2.64
6.91	2.63638
6.92	2.63276
6.93	2.62224
6.94	2.62651
6.95	2.65349
6.96	2.63704
6.97	2.6025
6.98	2.64132
6.99	2.61994
7	2.61994
7.01	2.6229
7.02	2.63704
7.03	2.63178
7.04	2.59066
7.05	2.59822
7.06	2.61303
7.07	2.61632
7.08	2.59461
7.09	2.62651
7.1	2.63934
7.11	2.65513
7.12	2.64165
7.13	2.62355
7.14	2.63967
7.15	2.64757
7.16	2.64625
7.17	2.62553
7.18	2.6354
7.19	2.63013
7.2	2.61303
7.21	2.63244
7.22	2.61829
7.23	2.62092
7.24	2.62059
7.25	2.63046
7.26	2.63967
7.27	2.63836
7.28	2.6275
7.29	2.61928
7.3	2.62388
7.31	2.61138
7.32	2.64757
7.33	2.65119
7.34	2.64198
7.35	2.6104
7.36	2.61763
7.37	2.61204
7.38	2.59855
7.39	2.6275
7.4	2.63013
7.41	2.615
7.42	2.64
7.43	2.64724
7.44	2.66007
7.45	2.63079
7.46	2.60974
7.47	2.65217
7.48	2.63605
7.49	2.64099
7.5	2.62158
7.51	2.63967
7.52	2.65941
7.53	2.65283
7.54	2.6479
7.55	2.61599
7.56	2.61961
7.57	2.60513
7.58	2.61204
7.59	2.6025
7.6	2.62323
7.61	2.63507
7.62	2.61928
7.63	2.61862
7.64	2.62915
7.65	2.65119
7.66	2.63474
7.67	2.60053
7.68	2.62158
7.69	2.65481
7.7	2.67224
7.71	2.62125
7.72	2.64921
7.73	2.66204
7.74	2.64
7.75	2.62125
7.76	2.67158
7.77	2.63211
7.78	2.62191
7.79	2.6104
7.8	2.64757
7.81	2.6275
7.82	2.60612
7.83	2.63079
7.84	2.62586
7.85	2.61369
7.86	2.61007
7.87	2.62651
7.88	2.62092
7.89	2.65842
7.9	2.63112
7.91	2.64132
7.92	2.62059
7.93	2.61401
7.94	2.62816
7.95	2.6423
7.96	2.63276
7.97	2.61895
7.98	2.64329
7.99	2.64921
8	2.63902
8.01	2.62158
8.02	2.62586
8.03	2.60645
8.04	2.6229
8.05	2.61763
8.06	2.60711
8.07	2.6229
8.08	2.64165
8.09	2.63244
8.1	2.60974
8.11	2.62915
8.12	2.60908
8.13	2.63803
8.14	2.64165
8.15	2.63638
8.16	2.6604
8.17	2.65152
8.18	2.65217
8.19	2.63573
8.2	2.6502
8.21	2.63836
8.22	2.63013
8.23	2.63244
8.24	2.60678
8.25	2.64888
8.26	2.63211
8.27	2.61763
8.28	2.62684
8.29	2.62717
8.3	2.64625
8.31	2.64855
8.32	2.63671
8.33	2.61895
8.34	2.62388
8.35	2.65349
8.36	2.59691
8.37	2.60283
8.38	2.61105
8.39	2.60217
8.4	2.63869
8.41	2.61533
8.42	2.63145
8.43	2.60382
8.44	2.62882
8.45	2.61303
8.46	2.62388
8.47	2.6275
8.48	2.60711
8.49	2.60053
8.5	2.62454
8.51	2.64428
8.52	2.65513
8.53	2.61796
8.54	2.59526
8.55	2.60283
8.56	2.63079
8.57	2.64395
8.58	2.62586
8.59	2.60513
8.6	2.59559
8.61	2.63671
8.62	2.63803
8.63	2.62882
8.64	2.60711
8.65	2.6229
8.66	2.60382
8.67	2.65382
8.68	2.60974
8.69	2.61171
8.7	2.64921
8.71	2.62257
8.72	2.63605
8.73	2.6377
8.74	2.63441
8.75	2.62849
8.76	2.65349
8.77	2.64954
8.78	2.63441
8.79	2.61994
8.8	2.62355
8.81	2.6275
8.82	2.62323
8.83	2.63244
8.84	2.64033
8.85	2.61072
8.86	2.63507
8.87	2.61467
8.88	2.59691
8.89	2.61697
8.9	2.62355
8.91	2.62619
8.92	2.64461
8.93	2.61763
8.94	2.61763
8.95	2.59165
8.96	2.60908
8.97	2.60645
8.98	2.62388
8.99	2.62487
9	2.60283
9.01	2.62553
9.02	2.63441
9.03	2.60184
9.04	2.61401
9.05	2.60546
9.06	2.62026
9.07	2.61928
9.08	2.59132
9.09	2.65908
9.1	2.62849
9.11	2.64
9.12	2.64823
9.13	2.63803
9.14	2.61796
9.15	2.61632
9.16	2.60349
9.17	2.62454
9.18	2.63276
9.19	2.62487
9.2	2.63309
9.21	2.62783
9.22	2.64757
9.23	2.64099
9.24	2.64921
9.25	2.64099
9.26	2.64658
9.27	2.64263
9.28	2.63605
9.29	2.61401
9.3	2.5979
9.31	2.60875
9.32	2.60118
9.33	2.65053
9.34	2.64428
9.35	2.61928
9.36	2.65053
9.37	2.63902
9.38	2.61138
9.39	2.6104
9.4	2.61599
9.41	2.63145
9.42	2.59757
9.43	2.615
9.44	2.61434
9.45	2.59395
9.46	2.61665
9.47	2.5979
9.48	2.61401
9.49	2.62224
9.5	2.63276
9.51	2.60151
9.52	2.59691
9.53	2.59855
9.54	2.63737
9.55	2.63046
9.56	2.6252
9.57	2.63507
9.58	2.58803
9.59	2.61369
9.6	2.60579
9.61	2.61961
9.62	2.61237
9.63	2.61763
9.64	2.58967
9.65	2.60776
9.66	2.63671
9.67	2.61763
9.68	2.63375
9.69	2.60053
9.7	2.64527
9.71	2.6173
9.72	2.62948
9.73	2.63902
9.74	2.62487
9.75	2.64461
9.76	2.62388
9.77	2.61007
9.78	2.61467
9.79	2.6173
9.8	2.62059
9.81	2.61928
9.82	2.62026
9.83	2.59592
9.84	2.59757
9.85	2.63046
9.86	2.61632
9.87	2.60546
9.88	2.61599
9.89	2.60086
9.9	2.60776
9.91	2.61566
9.92	2.60118
9.93	2.62158
9.94	2.62651
9.95	2.62388
9.96	2.65217
9.97	2.615
9.98	2.60415
9.99	2.64724
10	2.63869
10.01	2.6048
10.02	2.61697
10.03	2.62619
10.04	2.63605
10.05	2.61697
10.06	2.64823
10.07	2.61994
10.08	2.62915
10.09	2.61697
10.1	2.61072
10.11	2.62454
10.12	2.60645
10.13	2.62717
10.14	2.61467
10.15	2.60546
10.16	2.61467
10.17	2.6173
10.18	2.63902
10.19	2.60447
10.2	2.62651
10.21	2.59066
10.22	2.60316
10.23	2.62783
10.24	2.6275
10.25	2.62553
10.26	2.63309
10.27	2.61303
10.28	2.65217
10.29	2.63309
10.3	2.60678
10.31	2.63441
10.32	2.63441
10.33	2.63211
10.34	2.61237
10.35	2.63704
10.36	2.65579
10.37	2.60776
10.38	2.62948
10.39	2.61467
10.4	2.6377
10.41	2.62717
10.42	2.61862
10.43	2.60776
10.44	2.61007
10.45	2.615
10.46	2.59263
10.47	2.59822
10.48	2.615
10.49	2.61138
10.5	2.6173
10.51	2.60184
10.52	2.61533
10.53	2.63178
10.54	2.63967
10.55	2.63803
10.56	2.61105
10.57	2.61138
10.58	2.64165
10.59	2.61467
10.6	2.61994
10.61	2.61697
10.62	2.63178
10.63	2.62586
10.64	2.60151
10.65	2.59197
10.66	2.61204
10.67	2.61401
10.68	2.63507
10.69	2.60579
10.7	2.60941
10.71	2.62323
10.72	2.60118
10.73	2.59
10.74	2.60776
10.75	2.61303
10.76	2.62388
10.77	2.63605
10.78	2.64
10.79	2.64099
10.8	2.61632
10.81	2.60645
10.82	2.65053
10.83	2.63342
10.84	2.62191
10.85	2.62651
10.86	2.62059
10.87	2.62586
10.88	2.60447
10.89	2.60809
10.9	2.60118
10.91	2.62915
10.92	2.62026
10.93	2.62487
10.94	2.62092
10.95	2.62355
10.96	2.63573
10.97	2.63112
10.98	2.61401
10.99	2.62684
11	2.6127
11.01	2.6048
11.02	2.59987
11.03	2.63638
11.04	2.63408
11.05	2.60941
11.06	2.6173
11.07	2.63902
11.08	2.6127
11.09	2.62882
11.1	2.61599
11.11	2.61007
11.12	2.60941
11.13	2.6104
11.14	2.59395
11.15	2.61434
11.16	2.58507
11.17	2.60546
11.18	2.63145
11.19	2.63013
11.2	2.59855
11.21	2.60842
11.22	2.63605
11.23	2.61336
11.24	2.62651
11.25	2.61763
11.26	2.6252
11.27	2.59757
11.28	2.61401
11.29	2.60349
11.3	2.6048
11.31	2.59099
11.32	2.61994
11.33	2.64329
11.34	2.61467
11.35	2.60316
11.36	2.60184
11.37	2.60349
11.38	2.61369
11.39	2.58704
11.4	2.58408
11.41	2.6104
11.42	2.60546
11.43	2.61401
11.44	2.59395
11.45	2.60546
11.46	2.58671
11.47	2.60645
11.48	2.61829
11.49	2.62586
11.5	2.60974
11.51	2.59263
11.52	2.63375
11.53	2.60776
11.54	2.59559
11.55	2.60513
11.56	2.61171
11.57	2.61237
11.58	2.61665
11.59	2.63573
11.6	2.60941
11.61	2.60546
11.62	2.61829
11.63	2.6173
11.64	2.6604
11.65	2.61566
11.66	2.6048
11.67	2.64691
11.68	2.62125
11.69	2.62651
11.7	2.59362
11.71	2.59
11.72	2.59888
11.73	2.62553
11.74	2.61763
11.75	2.61401
11.76	2.59165
11.77	2.62224
11.78	2.59461
11.79	2.56796
11.8	2.59822
11.81	2.64855
11.82	2.63276
11.83	2.60053
11.84	2.61171
11.85	2.6377
11.86	2.61237
11.87	2.61072
11.88	2.62816
11.89	2.60382
11.9	2.60711
11.91	2.58408
11.92	2.60513
11.93	2.62915
11.94	2.62191
11.95	2.61665
11.96	2.59395
11.97	2.58539
11.98	2.62092
11.99	2.60941
12	2.6048
12.01	2.58539
12.02	2.61632
12.03	2.6275
12.04	2.62224
12.05	2.58441
12.06	2.61007
12.07	2.63408
12.08	2.60053
12.09	2.60086
12.1	2.57684
12.11	2.59132
12.12	2.62421
12.13	2.60349
12.14	2.60415
12.15	2.63211
12.16	2.59724
12.17	2.59658
12.18	2.58507
12.19	2.56796
12.2	2.61994
12.21	2.64987
12.22	2.6173
12.23	2.61467
12.24	2.58572
12.25	2.63638
12.26	2.63309
12.27	2.63013
12.28	2.58836
12.29	2.56895
12.3	2.60053
12.31	2.63638
12.32	2.62421
12.33	2.59559
12.34	2.60283
12.35	2.61994
12.36	2.62487
12.37	2.61401
12.38	2.58836
12.39	2.59625
12.4	2.60744
12.41	2.59954
12.42	2.60513
12.43	2.63046
12.44	2.62388
12.45	2.64921
12.46	2.62224
12.47	2.60118
12.48	2.62125
12.49	2.6229
12.5	2.59691
12.51	2.61369
12.52	2.62882
12.53	2.59461
12.54	2.60053
12.55	2.59987
12.56	2.62323
12.57	2.62684
12.58	2.59757
12.59	2.60908
12.6	2.57618
12.61	2.60645
12.62	2.60776
12.63	2.59855
12.64	2.62684
12.65	2.58046
12.66	2.61369
12.67	2.60908
12.68	2.58967
12.69	2.61434
12.7	2.62454
12.71	2.63573
12.72	2.62948
12.73	2.5923
12.74	2.58934
12.75	2.57388
12.76	2.59822
12.77	2.59855
12.78	2.59888
12.79	2.63244
12.8	2.6173
12.81	2.64724
12.82	2.62619
12.83	2.59855
12.84	2.59724
12.85	2.60316
12.86	2.59888
12.87	2.60382
12.88	2.58013
12.89	2.60415
12.9	2.62948
12.91	2.61994
12.92	2.62783
12.93	2.62059
12.94	2.59362
12.95	2.62355
12.96	2.61994
12.97	2.63046
12.98	2.60053
12.99	2.63211
13	2.60184
13.01	2.57487
13.02	2.60217
13.03	2.62586
13.04	2.60744
13.05	2.62948
13.06	2.615
13.07	2.59658
13.08	2.6025
13.09	2.59493
13.1	2.57059
13.11	2.58112
13.12	2.60086
13.13	2.6173
13.14	2.61204
13.15	2.59362
13.16	2.60283
13.17	2.59461
13.18	2.58539
13.19	2.58211
13.2	2.6127
13.21	2.6127
13.22	2.61697
13.23	2.6173
13.24	2.58079
13.25	2.6048
13.26	2.58803
13.27	2.58572
13.28	2.61401
13.29	2.61829
13.3	2.62059
13.31	2.61401
13.32	2.57783
13.33	2.58934
13.34	2.60184
13.35	2.60447
13.36	2.6048
13.37	2.61566
13.38	2.63573
13.39	2.60776
13.4	2.61434
13.41	2.57454
13.42	2.57125
13.43	2.60908
13.44	2.58967
13.45	2.59263
13.46	2.58441
13.47	2.60546
13.48	2.61171
13.49	2.60184
13.5	2.57289
13.51	2.60776
13.52	2.61994
13.53	2.57158
13.54	2.63244
13.55	2.62915
13.56	2.59461
13.57	2.58145
13.58	2.59757
13.59	2.58605
13.6	2.615
13.61	2.63211
13.62	2.61533
13.63	2.58671
13.64	2.60151
13.65	2.60447
13.66	2.6127
13.67	2.61369
13.68	2.59
13.69	2.59691
13.7	2.60513
13.71	2.60513
13.72	2.62092
13.73	2.62323
13.74	2.6127
13.75	2.63573
13.76	2.62454
