"BIO-KINE ASCII FILE"
"_COMMENT"	"MOS-500 Spectrometer"
"_COMMENT"	"Kinetics measurement"
"_COMMENT"	"Y Unit : Volt,  X Unit : s"
"_COMMENT"	"Excitation wavelength : 380 nm"
"_COMMENT"	"Fentes bandwidth =  1 nm"
"_COMMENT"	"HV= 1000V"
"_COMMENT"	"Timebase  1 =  .01 s   5001 pts"
"_SFM"	"SFM-400 /S  Advanced mode"
"_SFM"	"Ratio : S1: 2.5, S2: 0, S3: 0, S4: 1"
"_SFM"	"Content : S1: , S2: , S3: , S4:"
"_SFM"	"Concentration : S1: , S2: , S3: , S4:"
"_SFM"	"Total volume : 209 µl  Flow : 3.5 mL/s"
"_SFM"	"Acquisition start :  10 ms before stop"
"_SFM"	"cuve=FC-15, s1=10 ml , s2=10 ml , s3=10 ml , s4=1.9 ml"
"_UNITX"	"s"
"_UNITY"	"Volt"
"_DELTAX"	0
"_DATA"
1e-300	4.48019
0.01	4.44796
0.02	4.48973
0.03	4.59697
0.04	4.65224
0.05	4.70191
0.06	4.75948
0.07	4.76408
0.08	4.75191
0.09	4.78481
0.1	4.75454
0.11	4.79237
0.12	4.80356
0.13	4.80455
0.14	4.8131
0.15	4.82659
0.16	4.81047
0.17	4.84336
0.18	4.80126
0.19	4.82494
0.2	4.80323
0.21	4.83909
0.22	4.81573
0.23	4.82066
0.24	4.88152
0.25	4.83941
0.26	4.82988
0.27	4.83974
0.28	4.79007
0.29	4.84895
0.3	4.8404
0.31	4.8529
0.32	4.79139
0.33	4.76869
0.34	4.77527
0.35	4.80158
0.36	4.77
0.37	4.83415
0.38	4.8427
0.39	4.8052
0.4	4.82461
0.41	4.79566
0.42	4.78185
0.43	4.81145
0.44	4.75389
0.45	4.79172
0.46	4.80191
0.47	4.80718
0.48	4.78843
0.49	4.78152
0.5	4.81409
0.51	4.7983
0.52	4.77132
0.53	4.78283
0.54	4.79797
0.55	4.8006
0.56	4.79139
0.57	4.80685
0.58	4.76112
0.59	4.76145
0.6	4.80191
0.61	4.7779
0.62	4.79106
0.63	4.79698
0.64	4.8006
0.65	4.79073
0.66	4.77494
0.67	4.77724
0.68	4.75224
0.69	4.77099
0.7	4.76244
0.71	4.78908
0.72	4.79533
0.73	4.80224
0.74	4.76573
0.75	4.75882
0.76	4.77625
0.77	4.78612
0.78	4.78514
0.79	4.8108
0.8	4.77889
0.81	4.77856
0.82	4.75224
0.83	4.77099
0.84	4.77264
0.85	4.78974
0.86	4.75948
0.87	4.74632
0.88	4.7052
0.89	4.75125
0.9	4.73086
0.91	4.75487
0.92	4.76211
0.93	4.71408
0.94	4.74928
0.95	4.72296
0.96	4.72362
0.97	4.76441
0.98	4.76704
0.99	4.73711
1	4.77362
1.01	4.74369
1.02	4.73283
1.03	4.75718
1.04	4.72823
1.05	4.73415
1.06	4.7381
1.07	4.7552
1.08	4.7404
1.09	4.74402
1.1	4.7029
1.11	4.68349
1.12	4.69698
1.13	4.73678
1.14	4.7154
1.15	4.72296
1.16	4.72724
1.17	4.74303
1.18	4.7052
1.19	4.74764
1.2	4.66901
1.21	4.67954
1.22	4.72066
1.23	4.71342
1.24	4.70948
1.25	4.75224
1.26	4.71836
1.27	4.71375
1.28	4.72921
1.29	4.67494
1.3	4.71145
1.31	4.68053
1.32	4.68053
1.33	4.68678
1.34	4.69796
1.35	4.73152
1.36	4.71277
1.37	4.7256
1.38	4.74106
1.39	4.74961
1.4	4.67329
1.41	4.69961
1.42	4.68645
1.43	4.67461
1.44	4.69862
1.45	4.68842
1.46	4.67592
1.47	4.68711
1.48	4.68711
1.49	4.68974
1.5	4.6677
1.51	4.72263
1.52	4.66342
1.53	4.67494
1.54	4.64763
1.55	4.67066
1.56	4.66869
1.57	4.67987
1.58	4.65882
1.59	4.67
1.6	4.6473
1.61	4.66803
1.62	4.67625
1.63	4.65388
1.64	4.63447
1.65	4.6825
1.66	4.67724
1.67	4.66671
1.68	4.64369
1.69	4.69829
1.7	4.71606
1.71	4.65026
1.72	4.63842
1.73	4.69632
1.74	4.67329
1.75	4.68119
1.76	4.66605
1.77	4.65882
1.78	4.64599
1.79	4.61638
1.8	4.695
1.81	4.65322
1.82	4.63941
1.83	4.63118
1.84	4.61079
1.85	4.64467
1.86	4.66605
1.87	4.66869
1.88	4.64566
1.89	4.6473
1.9	4.65619
1.91	4.6552
1.92	4.64237
1.93	4.63053
1.94	4.64007
1.95	4.60882
1.96	4.62888
1.97	4.64796
1.98	4.64336
1.99	4.63316
2	4.63283
2.01	4.65553
2.02	4.63151
2.03	4.59599
2.04	4.57296
2.05	4.6098
2.06	4.63941
2.07	4.60849
2.08	4.63546
2.09	4.61342
2.1	4.62329
2.11	4.62888
2.12	4.57921
2.13	4.57625
2.14	4.59072
2.15	4.64303
2.16	4.60059
2.17	4.61934
2.18	4.62066
2.19	4.6598
2.2	4.6404
2.21	4.61342
2.22	4.64171
2.23	4.6075
2.24	4.64533
2.25	4.63283
2.26	4.61375
2.27	4.62461
2.28	4.66737
2.29	4.58381
2.3	4.6325
2.31	4.62164
2.32	4.59007
2.33	4.60191
2.34	4.62592
2.35	4.62954
2.36	4.61671
2.37	4.62296
2.38	4.56243
2.39	4.5723
2.4	4.58118
2.41	4.59632
2.42	4.58579
2.43	4.58085
2.44	4.58842
2.45	4.55322
2.46	4.53217
2.47	4.58875
2.48	4.62724
2.49	4.57724
2.5	4.59138
2.51	4.57625
2.52	4.57691
2.53	4.55947
2.54	4.58151
2.55	4.59335
2.56	4.58053
2.57	4.5621
2.58	4.56079
2.59	4.5427
2.6	4.55125
2.61	4.60257
2.62	4.59895
2.63	4.545
2.64	4.57756
2.65	4.57756
2.66	4.52987
2.67	4.5552
2.68	4.53184
2.69	4.58743
2.7	4.55487
2.71	4.56802
2.72	4.54467
2.73	4.58151
2.74	4.58447
2.75	4.57822
2.76	4.56967
2.77	4.57296
2.78	4.58809
2.79	4.5598
2.8	4.55552
2.81	4.54171
2.82	4.57197
2.83	4.58349
2.84	4.56704
2.85	4.56441
2.86	4.54368
2.87	4.55421
2.88	4.54434
2.89	4.52954
2.9	4.55125
2.91	4.54993
2.92	4.56276
2.93	4.53118
2.94	4.53579
2.95	4.53546
2.96	4.56441
2.97	4.57395
2.98	4.58974
2.99	4.55585
3	4.56441
3.01	4.56835
3.02	4.54467
3.03	4.53381
3.04	4.51802
3.05	4.52723
3.06	4.55026
3.07	4.55223
3.08	4.53809
3.09	4.51967
3.1	4.51769
3.11	4.55816
3.12	4.57724
3.13	4.55914
3.14	4.5496
3.15	4.55816
3.16	4.53447
3.17	4.54401
3.18	4.51704
3.19	4.49072
3.2	4.5223
3.21	4.53546
3.22	4.52131
3.23	4.54072
3.24	4.55322
3.25	4.51079
3.26	4.52625
3.27	4.51704
3.28	4.57099
3.29	4.56474
3.3	4.52855
3.31	4.55388
3.32	4.52033
3.33	4.5371
3.34	4.53118
3.35	4.55158
3.36	4.50059
3.37	4.52822
3.38	4.59401
3.39	4.53414
3.4	4.54664
3.41	4.53283
3.42	4.49138
3.43	4.50684
3.44	4.50783
3.45	4.49598
3.46	4.53085
3.47	4.55322
3.48	4.54401
3.49	4.54664
3.5	4.50059
3.51	4.51375
3.52	4.50684
3.53	4.54598
3.54	4.5121
3.55	4.52
3.56	4.49467
3.57	4.52921
3.58	4.50486
3.59	4.53776
3.6	4.52592
3.61	4.55585
3.62	4.55322
3.63	4.50223
3.64	4.50026
3.65	4.47921
3.66	4.49533
3.67	4.52427
3.68	4.51079
3.69	4.49829
3.7	4.51342
3.71	4.44072
3.72	4.46309
3.73	4.49105
3.74	4.46407
3.75	4.45782
3.76	4.50848
3.77	4.50454
3.78	4.44894
3.79	4.47065
3.8	4.46506
3.81	4.49039
3.82	4.48414
3.83	4.45519
3.84	4.45848
3.85	4.49335
3.86	4.47921
3.87	4.45486
3.88	4.48348
3.89	4.45256
3.9	4.47427
3.91	4.48184
3.92	4.46144
3.93	4.47986
3.94	4.49368
3.95	4.50125
3.96	4.42328
3.97	4.45717
3.98	4.50651
3.99	4.49368
4	4.46078
4.01	4.44236
4.02	4.46276
4.03	4.48381
4.04	4.47296
4.05	4.50717
4.06	4.48842
4.07	4.47164
4.08	4.47526
4.09	4.5144
4.1	4.43348
4.11	4.4519
4.12	4.46078
4.13	4.45453
4.14	4.4621
4.15	4.45256
4.16	4.46375
4.17	4.45223
4.18	4.47427
4.19	4.47723
4.2	4.44467
4.21	4.43677
4.22	4.4519
4.23	4.4292
4.24	4.47888
4.25	4.47197
4.26	4.40881
4.27	4.41144
4.28	4.43842
4.29	4.44006
4.3	4.48644
4.31	4.48348
4.32	4.42657
4.33	4.46177
4.34	4.4371
4.35	4.44105
4.36	4.40322
4.37	4.47822
4.38	4.46769
4.39	4.45881
4.4	4.40026
4.41	4.48085
4.42	4.46802
4.43	4.43348
4.44	4.46835
4.45	4.44894
4.46	4.40026
4.47	4.40716
4.48	4.43809
4.49	4.45552
4.5	4.44105
4.51	4.46868
4.52	4.48611
4.53	4.45947
4.54	4.45815
4.55	4.45388
4.56	4.4394
4.57	4.44401
4.58	4.4292
4.59	4.40289
4.6	4.4121
4.61	4.42295
4.62	4.4167
4.63	4.42065
4.64	4.42789
4.65	4.47986
4.66	4.41605
4.67	4.38545
4.68	4.42888
4.69	4.45914
4.7	4.43019
4.71	4.45388
4.72	4.42723
4.73	4.41934
4.74	4.36868
4.75	4.43842
4.76	4.41276
4.77	4.40026
4.78	4.3871
4.79	4.43118
4.8	4.40322
4.81	4.41802
4.82	4.41802
4.83	4.43513
4.84	4.39795
4.85	4.41407
4.86	4.40716
4.87	4.41177
4.88	4.3871
4.89	4.39532
4.9	4.39203
4.91	4.41605
4.92	4.39269
4.93	4.40881
4.94	4.43151
4.95	4.37789
4.96	4.3667
4.97	4.41703
4.98	4.4167
4.99	4.40881
5	4.40519
5.01	4.38019
5.02	4.37361
5.03	4.38151
5.04	4.3917
5.05	4.38578
5.06	4.39532
5.07	4.35519
5.08	4.4223
5.09	4.40552
5.1	4.39993
5.11	4.41341
5.12	4.38216
5.13	4.41966
5.14	4.44203
5.15	4.42032
5.16	4.40519
5.17	4.38743
5.18	4.40091
5.19	4.40914
5.2	4.4019
5.21	4.40026
5.22	4.38611
5.23	4.39894
5.24	4.3496
5.25	4.38644
5.26	4.41374
5.27	4.35157
5.28	4.33841
5.29	4.36966
5.3	4.37328
5.31	4.35618
5.32	4.3973
5.33	4.37065
5.34	4.35387
5.35	4.3871
5.36	4.38677
5.37	4.38249
5.38	4.37032
5.39	4.37361
5.4	4.38216
5.41	4.36078
5.42	4.34532
5.43	4.35223
5.44	4.33381
5.45	4.34795
5.46	4.38019
5.47	4.36308
5.48	4.38743
5.49	4.37624
5.5	4.38381
5.51	4.39697
5.52	4.37098
5.53	4.41309
5.54	4.40059
5.55	4.41506
5.56	4.38776
5.57	4.40618
5.58	4.36276
5.59	4.33743
5.6	4.37657
5.61	4.35782
5.62	4.37723
5.63	4.36802
5.64	4.39894
5.65	4.34631
5.66	4.32558
5.67	4.34072
5.68	4.34697
5.69	4.35322
5.7	4.37427
5.71	4.36012
5.72	4.35881
5.73	4.34993
5.74	4.35058
5.75	4.39302
5.76	4.38874
5.77	4.35519
5.78	4.37789
5.79	4.37558
5.8	4.3496
5.81	4.37624
5.82	4.38611
5.83	4.36966
5.84	4.35124
5.85	4.3417
5.86	4.32229
5.87	4.36736
5.88	4.36933
5.89	4.31177
5.9	4.30354
5.91	4.3644
5.92	4.34302
5.93	4.32361
5.94	4.33775
5.95	4.38677
5.96	4.36341
5.97	4.33578
5.98	4.31999
5.99	4.35552
6	4.39269
6.01	4.35025
6.02	4.3542
6.03	4.34729
6.04	4.3121
6.05	4.36637
6.06	4.34795
6.07	4.35091
6.08	4.36506
6.09	4.36276
6.1	4.34795
6.11	4.36736
6.12	4.31736
6.13	4.32229
6.14	4.34861
6.15	4.32821
6.16	4.35585
6.17	4.32098
6.18	4.30782
6.19	4.35716
6.2	4.29006
6.21	4.33381
6.22	4.34828
6.23	4.34532
6.24	4.32756
6.25	4.32558
6.26	4.33578
6.27	4.32525
6.28	4.31835
6.29	4.32164
6.3	4.32032
6.31	4.32065
6.32	4.35025
6.33	4.31539
6.34	4.29927
6.35	4.36802
6.36	4.37394
6.37	4.33841
6.38	4.32953
6.39	4.33348
6.4	4.34137
6.41	4.31571
6.42	4.33249
6.43	4.33578
6.44	4.35486
6.45	4.34466
6.46	4.33841
6.47	4.33282
6.48	4.31012
6.49	4.3269
6.5	4.3292
6.51	4.32295
6.52	4.29762
6.53	4.33545
6.54	4.31242
6.55	4.32065
6.56	4.31604
6.57	4.32295
6.58	4.32229
6.59	4.29663
6.6	4.29466
6.61	4.27788
6.62	4.3042
6.63	4.36111
6.64	4.33775
6.65	4.34006
6.66	4.3019
6.67	4.32887
6.68	4.32986
6.69	4.3042
6.7	4.27492
6.71	4.29499
6.72	4.30157
6.73	4.31341
6.74	4.27657
6.75	4.2996
6.76	4.29532
6.77	4.29795
6.78	4.30946
6.79	4.31111
6.8	4.3042
6.81	4.30946
6.82	4.32558
6.83	4.32196
6.84	4.30321
6.85	4.28644
6.86	4.33282
6.87	4.30453
6.88	4.31111
6.89	4.33743
6.9	4.28019
6.91	4.32624
6.92	4.29367
6.93	4.28808
6.94	4.26571
6.95	4.29992
6.96	4.32756
6.97	4.30223
6.98	4.31374
6.99	4.34598
7	4.29006
7.01	4.32361
7.02	4.31736
7.03	4.27657
7.04	4.30058
7.05	4.2815
7.06	4.28479
7.07	4.30848
7.08	4.31111
7.09	4.30256
7.1	4.29137
7.11	4.30683
7.12	4.30387
7.13	4.27492
7.14	4.25255
7.15	4.30782
7.16	4.31341
7.17	4.27328
7.18	4.29927
7.19	4.28874
7.2	4.26966
7.21	4.29894
7.22	4.29828
7.23	4.28019
7.24	4.31802
7.25	4.29335
7.26	4.28479
7.27	4.28677
7.28	4.32394
7.29	4.3042
7.3	4.29631
7.31	4.27229
7.32	4.29927
7.33	4.28578
7.34	4.319
7.35	4.28644
7.36	4.24992
7.37	4.26999
7.38	4.2644
7.39	4.27394
7.4	4.28282
7.41	4.30256
7.42	4.29861
7.43	4.29071
7.44	4.29071
7.45	4.25815
7.46	4.26867
7.47	4.22887
7.48	4.24071
7.49	4.26242
7.5	4.25716
7.51	4.29729
7.52	4.28249
7.53	4.26867
7.54	4.23775
7.55	4.24038
7.56	4.28052
7.57	4.27657
7.58	4.29598
7.59	4.29631
7.6	4.23676
7.61	4.25387
7.62	4.23479
7.63	4.26604
7.64	4.26571
7.65	4.28282
7.66	4.30683
7.67	4.32427
7.68	4.2996
7.69	4.26966
7.7	4.26078
7.71	4.30749
7.72	4.27098
7.73	4.27196
7.74	4.29828
7.75	4.26604
7.76	4.27032
7.77	4.28512
7.78	4.2644
7.79	4.23676
7.8	4.25716
7.81	4.26571
7.82	4.21045
7.83	4.25848
7.84	4.27065
7.85	4.2917
7.86	4.27953
7.87	4.28512
7.88	4.25321
7.89	4.26111
7.9	4.26571
7.91	4.26111
7.92	4.26012
7.93	4.219
7.94	4.28084
7.95	4.26275
7.96	4.2769
7.97	4.26538
7.98	4.25387
7.99	4.25058
8	4.244
8.01	4.27657
8.02	4.26966
8.03	4.23545
8.04	4.26473
8.05	4.23545
8.06	4.23117
8.07	4.2917
8.08	4.26012
8.09	4.24236
8.1	4.23644
8.11	4.23282
8.12	4.22394
8.13	4.26999
8.14	4.28709
8.15	4.21801
8.16	4.2417
8.17	4.24861
8.18	4.22821
8.19	4.26242
8.2	4.25223
8.21	4.24466
8.22	4.26966
8.23	4.27229
8.24	4.23479
8.25	4.22788
8.26	4.27854
8.27	4.27525
8.28	4.21834
8.29	4.23051
8.3	4.22032
8.31	4.23282
8.32	4.27328
8.33	4.23051
8.34	4.2213
8.35	4.21867
8.36	4.21176
8.37	4.26571
8.38	4.24992
8.39	4.21571
8.4	4.24236
8.41	4.22426
8.42	4.21637
8.43	4.24663
8.44	4.22953
8.45	4.2519
8.46	4.25091
8.47	4.22624
8.48	4.2292
8.49	4.23117
8.5	4.22821
8.51	4.21012
8.52	4.22426
8.53	4.24038
8.54	4.21571
8.55	4.19104
8.56	4.23578
8.57	4.22163
8.58	4.23249
8.59	4.22229
8.6	4.24959
8.61	4.19861
8.62	4.22821
8.63	4.24598
8.64	4.22953
8.65	4.26505
8.66	4.23874
8.67	4.19334
8.68	4.20222
8.69	4.2213
8.7	4.26407
8.71	4.24038
8.72	4.25025
8.73	4.24861
8.74	4.24137
8.75	4.24828
8.76	4.23183
8.77	4.20913
8.78	4.21143
8.79	4.21637
8.8	4.22196
8.81	4.22722
8.82	4.24071
8.83	4.22657
8.84	4.24696
8.85	4.20486
8.86	4.22295
8.87	4.2167
8.88	4.24532
8.89	4.20058
8.9	4.22591
8.91	4.26407
8.92	4.21736
8.93	4.24696
8.94	4.2213
8.95	4.1917
8.96	4.27065
8.97	4.24499
8.98	4.22065
8.99	4.20683
9	4.2088
9.01	4.19433
9.02	4.18939
9.03	4.20058
9.04	4.19959
9.05	4.22328
9.06	4.22788
9.07	4.19005
9.08	4.20979
9.09	4.23216
9.1	4.23479
9.11	4.21736
9.12	4.23479
9.13	4.21045
9.14	4.19433
9.15	4.23249
9.16	4.17985
9.17	4.22295
9.18	4.22492
9.19	4.19104
9.2	4.21538
9.21	4.20058
9.22	4.22657
9.23	4.22492
9.24	4.21308
9.25	4.22229
9.26	4.23545
9.27	4.19696
9.28	4.19795
9.29	4.18117
9.3	4.1917
9.31	4.21867
9.32	4.25913
9.33	4.20321
9.34	4.20189
9.35	4.18874
9.36	4.21933
9.37	4.20321
9.38	4.1565
9.39	4.19992
9.4	4.20453
9.41	4.21966
9.42	4.16242
9.43	4.22426
9.44	4.22065
9.45	4.21867
9.46	4.21045
9.47	4.219
9.48	4.17985
9.49	4.2088
9.5	4.18282
9.51	4.15617
9.52	4.20189
9.53	4.19038
9.54	4.20913
9.55	4.18972
9.56	4.21012
9.57	4.23249
9.58	4.19795
9.59	4.17064
9.6	4.18413
9.61	4.169
9.62	4.19104
9.63	4.19597
9.64	4.19104
9.65	4.16604
9.66	4.21933
9.67	4.17295
9.68	4.2269
9.69	4.21571
9.7	4.16078
9.71	4.19828
9.72	4.18874
9.73	4.20716
9.74	4.22755
9.75	4.1792
9.76	4.20157
9.77	4.19926
9.78	4.21078
9.79	4.17492
9.8	4.18249
9.81	4.22328
9.82	4.1667
9.83	4.14038
9.84	4.18413
9.85	4.20157
9.86	4.14827
9.87	4.20124
9.88	4.14795
9.89	4.20387
9.9	4.21111
9.91	4.1963
9.92	4.17097
9.93	4.18413
9.94	4.15584
9.95	4.16374
9.96	4.18709
9.97	4.16472
9.98	4.18972
9.99	4.18874
10	4.19236
10.01	4.19959
10.02	4.15847
10.03	4.21045
10.04	4.17393
10.05	4.15551
10.06	4.19334
10.07	4.2338
10.08	4.18775
10.09	4.18545
10.1	4.194
10.11	4.19367
10.12	4.20815
10.13	4.19893
10.14	4.1736
10.15	4.17295
10.16	4.19828
10.17	4.18314
10.18	4.17328
10.19	4.17196
10.2	4.19663
10.21	4.20387
10.22	4.20979
10.23	4.18775
10.24	4.20189
10.25	4.18117
10.26	4.18183
10.27	4.16768
10.28	4.16275
10.29	4.13742
10.3	4.16703
10.31	4.19564
10.32	4.20157
10.33	4.14564
10.34	4.18709
10.35	4.16012
10.36	4.15683
10.37	4.18347
10.38	4.18742
10.39	4.17985
10.4	4.17262
10.41	4.18413
10.42	4.17393
10.43	4.18249
10.44	4.16768
10.45	4.16801
10.46	4.16078
10.47	4.21111
10.48	4.14597
10.49	4.17722
10.5	4.15189
10.51	4.18084
10.52	4.15255
10.53	4.14466
10.54	4.14926
10.55	4.19959
10.56	4.15354
10.57	4.15222
10.58	4.16143
10.59	4.13808
10.6	4.16966
10.61	4.20157
10.62	4.16966
10.63	4.17657
10.64	4.21736
10.65	4.13413
10.66	4.16209
10.67	4.18413
10.68	4.15946
10.69	4.13545
10.7	4.2042
10.71	4.17591
10.72	4.13676
10.73	4.14499
10.74	4.13775
10.75	4.2144
10.76	4.16604
10.77	4.17985
10.78	4.16604
10.79	4.16176
10.8	4.15255
10.81	4.15847
10.82	4.15617
10.83	4.14729
10.84	4.14762
10.85	4.1417
10.86	4.16472
10.87	4.16867
10.88	4.13051
10.89	4.16999
10.9	4.18742
10.91	4.19071
10.92	4.15354
10.93	4.16242
10.94	4.14301
10.95	4.1667
10.96	4.18051
10.97	4.20387
10.98	4.14663
10.99	4.13577
11	4.13051
11.01	4.15716
11.02	4.14104
11.03	4.14762
11.04	4.17788
11.05	4.12558
11.06	4.16209
11.07	4.1611
11.08	4.16045
11.09	4.16341
11.1	4.1486
11.11	4.16143
11.12	4.1361
11.13	4.17887
11.14	4.16176
11.15	4.1111
11.16	4.11077
11.17	4.1588
11.18	4.15749
11.19	4.14202
11.2	4.1667
11.21	4.10222
11.22	4.15946
11.23	4.1542
11.24	4.15749
11.25	4.16867
11.26	4.16637
11.27	4.17624
11.28	4.14235
11.29	4.15617
11.3	4.16604
11.31	4.1542
11.32	4.17229
11.33	4.17525
11.34	4.16439
11.35	4.1611
11.36	4.16209
11.37	4.15354
11.38	4.18314
11.39	4.16045
11.4	4.13742
11.41	4.17196
11.42	4.13874
11.43	4.15124
11.44	4.13676
11.45	4.13742
11.46	4.16867
11.47	4.18479
11.48	4.14433
11.49	4.14663
11.5	4.14235
11.51	4.11768
11.52	4.13018
11.53	4.12064
11.54	4.11735
11.55	4.1361
11.56	4.1338
11.57	4.13841
11.58	4.16439
11.59	4.14499
11.6	4.14235
11.61	4.11209
11.62	4.13018
11.63	4.19038
11.64	4.10913
11.65	4.12031
11.66	4.11472
11.67	4.14466
11.68	4.13709
11.69	4.13413
11.7	4.18972
11.71	4.15091
11.72	4.15847
11.73	4.16637
11.74	4.14104
11.75	4.10847
11.76	4.14926
11.77	4.14268
11.78	4.14367
11.79	4.13775
11.8	4.17426
11.81	4.12854
11.82	4.13643
11.83	4.15551
11.84	4.1338
11.85	4.14005
11.86	4.12229
11.87	4.11538
11.88	4.1338
11.89	4.14597
11.9	4.11308
11.91	4.12064
11.92	4.17097
11.93	4.15979
11.94	4.16209
11.95	4.17821
11.96	4.15025
11.97	4.15387
11.98	4.15124
11.99	4.12755
12	4.14466
12.01	4.13939
12.02	4.13939
12.03	4.13545
12.04	4.13577
12.05	4.17624
12.06	4.12525
12.07	4.13676
12.08	4.15518
12.09	4.18413
12.1	4.16341
12.11	4.15683
12.12	4.13281
12.13	4.11998
12.14	4.11077
12.15	4.11077
12.16	4.12426
12.17	4.119
12.18	4.10189
12.19	4.11604
12.2	4.11308
12.21	4.09235
12.22	4.13577
12.23	4.12327
12.24	4.11801
12.25	4.14663
12.26	4.17163
12.27	4.18051
12.28	4.13018
12.29	4.13347
12.3	4.13018
12.31	4.14071
12.32	4.12327
12.33	4.13808
12.34	4.17229
12.35	4.17459
12.36	4.13545
12.37	4.12623
12.38	4.13775
12.39	4.14005
12.4	4.11176
12.41	4.11669
12.42	4.10847
12.43	4.09104
12.44	4.12031
12.45	4.13347
12.46	4.13347
12.47	4.09597
12.48	4.13248
12.49	4.15485
12.5	4.12327
12.51	4.10518
12.52	4.11998
12.53	4.11735
12.54	4.11505
12.55	4.09005
12.56	4.12229
12.57	4.12854
12.58	4.1861
12.59	4.16012
12.6	4.15091
12.61	4.12525
12.62	4.1213
12.63	4.11209
12.64	4.15091
12.65	4.14926
12.66	4.12229
12.67	4.12031
12.68	4.11308
12.69	4.12097
12.7	4.14531
12.71	4.15781
12.72	4.13347
12.73	4.12788
12.74	4.14499
12.75	4.12788
12.76	4.1213
12.77	4.11505
12.78	4.10716
12.79	4.11637
12.8	4.16341
12.81	4.14564
12.82	4.15749
12.83	4.15387
12.84	4.14137
12.85	4.07229
12.86	4.10617
12.87	4.11505
12.88	4.07393
12.89	4.11341
12.9	4.1486
12.91	4.1338
12.92	4.13084
12.93	4.1463
12.94	4.12887
12.95	4.16735
12.96	4.16012
12.97	4.11998
12.98	4.15387
12.99	4.09202
13	4.09367
13.01	4.12229
13.02	4.13643
13.03	4.13347
13.04	4.09071
13.05	4.11308
13.06	4.10946
13.07	4.13018
13.08	4.1236
13.09	4.11933
13.1	4.1065
13.11	4.12755
13.12	4.0588
13.13	4.15551
13.14	4.13446
13.15	4.10255
13.16	4.12295
13.17	4.08709
13.18	4.08906
13.19	4.07952
13.2	4.11998
13.21	4.13051
13.22	4.08808
13.23	4.11998
13.24	4.14762
13.25	4.11735
13.26	4.10419
13.27	4.10748
13.28	4.11044
13.29	4.08446
13.3	4.11472
13.31	4.11933
13.32	4.10551
13.33	4.12459
13.34	4.1611
13.35	4.13281
13.36	4.12558
13.37	4.10716
13.38	4.09531
13.39	4.11044
13.4	4.11867
13.41	4.11176
13.42	4.12985
13.43	4.0963
13.44	4.11637
13.45	4.12229
13.46	4.11373
13.47	4.10419
13.48	4.11439
13.49	4.10946
13.5	4.11077
13.51	4.12952
13.52	4.10748
13.53	4.11604
13.54	4.06735
13.55	4.13874
13.56	4.11308
13.57	4.10716
13.58	4.09926
13.59	4.1213
13.6	4.16571
13.61	4.14202
13.62	4.13479
13.63	4.09169
13.64	4.11209
13.65	4.094
13.66	4.11439
13.67	4.13183
13.68	4.12426
13.69	4.08215
13.7	4.15584
13.71	4.13084
13.72	4.08775
13.73	4.05682
13.74	4.10222
