"BIO-KINE ASCII FILE"
"_COMMENT"	"MOS-500 Spectrometer"
"_COMMENT"	"Kinetics measurement"
"_COMMENT"	"Y Unit : Volt,  X Unit : s"
"_COMMENT"	"Excitation wavelength : 380 nm"
"_COMMENT"	"Fentes bandwidth =  1 nm"
"_COMMENT"	"HV= 1000V"
"_COMMENT"	"Timebase  1 =  .01 s   5001 pts"
"_SFM"	"SFM-400 /S  Advanced mode"
"_SFM"	"Ratio : S1: 2.5, S2: 0, S3: 0, S4: 1"
"_SFM"	"Content : S1: , S2: , S3: , S4:"
"_SFM"	"Concentration : S1: , S2: , S3: , S4:"
"_SFM"	"Total volume : 209 µl  Flow : 3.5 mL/s"
"_SFM"	"Acquisition start :  10 ms before stop"
"_SFM"	"cuve=FC-15, s1=10 ml , s2=10 ml , s3=10 ml , s4=1.9 ml"
"_UNITX"	"s"
"_UNITY"	"Volt"
"_DELTAX"	0
"_DATA"
1e-300	4.50223
0.01	4.52033
0.02	4.5098
0.03	4.64862
0.04	4.73612
0.05	4.7381
0.06	4.81277
0.07	4.81968
0.08	4.7802
0.09	4.84106
0.1	4.84534
0.11	4.8631
0.12	4.8552
0.13	4.82066
0.14	4.8835
0.15	4.86771
0.16	4.86836
0.17	4.8529
0.18	4.85553
0.19	4.85981
0.2	4.86343
0.21	4.83448
0.22	4.88053
0.23	4.88382
0.24	4.90356
0.25	4.91475
0.26	4.8983
0.27	4.91409
0.28	4.90422
0.29	4.86343
0.3	4.90455
0.31	4.92856
0.32	4.90356
0.33	4.8654
0.34	4.87988
0.35	4.86803
0.36	4.88942
0.37	4.85784
0.38	4.84961
0.39	4.88613
0.4	4.8404
0.41	4.89994
0.42	4.88481
0.43	4.89271
0.44	4.86211
0.45	4.87396
0.46	4.88942
0.47	4.85422
0.48	4.84435
0.49	4.87527
0.5	4.87955
0.51	4.85126
0.52	4.82659
0.53	4.86145
0.54	4.90586
0.55	4.86178
0.56	4.87132
0.57	4.88942
0.58	4.88646
0.59	4.81902
0.6	4.87659
0.61	4.89665
0.62	4.8427
0.63	4.85652
0.64	4.86113
0.65	4.82362
0.66	4.85882
0.67	4.88481
0.68	4.87428
0.69	4.87461
0.7	4.85422
0.71	4.8358
0.72	4.85159
0.73	4.88415
0.74	4.84994
0.75	4.87461
0.76	4.83645
0.77	4.79106
0.78	4.78514
0.79	4.8108
0.8	4.82955
0.81	4.82593
0.82	4.83284
0.83	4.84435
0.84	4.88415
0.85	4.83119
0.86	4.82034
0.87	4.81803
0.88	4.80619
0.89	4.78251
0.9	4.81705
0.91	4.81343
0.92	4.79533
0.93	4.8154
0.94	4.81836
0.95	4.79369
0.96	4.77132
0.97	4.81803
0.98	4.82066
0.99	4.81606
1	4.84073
1.01	4.83316
1.02	4.85586
1.03	4.81737
1.04	4.81803
1.05	4.79994
1.06	4.75093
1.07	4.75093
1.08	4.8154
1.09	4.81376
1.1	4.80882
1.11	4.83514
1.12	4.76145
1.13	4.79994
1.14	4.81244
1.15	4.74533
1.16	4.78119
1.17	4.78086
1.18	4.76211
1.19	4.76211
1.2	4.78678
1.21	4.76836
1.22	4.75356
1.23	4.7552
1.24	4.78185
1.25	4.81474
1.26	4.79731
1.27	4.75882
1.28	4.79764
1.29	4.79468
1.3	4.78547
1.31	4.76507
1.32	4.7529
1.33	4.78382
1.34	4.76639
1.35	4.78448
1.36	4.8006
1.37	4.81014
1.38	4.77132
1.39	4.78843
1.4	4.74468
1.41	4.72921
1.42	4.75421
1.43	4.77527
1.44	4.7802
1.45	4.75652
1.46	4.79139
1.47	4.7904
1.48	4.78974
1.49	4.73382
1.5	4.7427
1.51	4.74764
1.52	4.78283
1.53	4.76408
1.54	4.77954
1.55	4.77362
1.56	4.71507
1.57	4.73678
1.58	4.74862
1.59	4.75619
1.6	4.73645
1.61	4.71244
1.62	4.71967
1.63	4.72099
1.64	4.73481
1.65	4.74336
1.66	4.75389
1.67	4.75191
1.68	4.7654
1.69	4.72461
1.7	4.71869
1.71	4.72592
1.72	4.74731
1.73	4.74632
1.74	4.78448
1.75	4.75323
1.76	4.71803
1.77	4.67888
1.78	4.71112
1.79	4.68184
1.8	4.69731
1.81	4.73842
1.82	4.72
1.83	4.72
1.84	4.67395
1.85	4.66901
1.86	4.73941
1.87	4.75718
1.88	4.72987
1.89	4.73612
1.9	4.72362
1.91	4.77362
1.92	4.73908
1.93	4.7381
1.94	4.73941
1.95	4.73053
1.96	4.69007
1.97	4.69369
1.98	4.71573
1.99	4.72198
2	4.7381
2.01	4.67296
2.02	4.70915
2.03	4.70948
2.04	4.70092
2.05	4.70586
2.06	4.69237
2.07	4.70388
2.08	4.71178
2.09	4.71507
2.1	4.70191
2.11	4.64237
2.12	4.6927
2.13	4.72362
2.14	4.74764
2.15	4.65454
2.16	4.66046
2.17	4.67
2.18	4.66901
2.19	4.70454
2.2	4.68579
2.21	4.67691
2.22	4.69928
2.23	4.68941
2.24	4.68184
2.25	4.66079
2.26	4.7029
2.27	4.68086
2.28	4.72527
2.29	4.70224
2.3	4.69402
2.31	4.67592
2.32	4.6904
2.33	4.69073
2.34	4.66046
2.35	4.67329
2.36	4.6779
2.37	4.66507
2.38	4.69698
2.39	4.67954
2.4	4.61145
2.41	4.66803
2.42	4.64401
2.43	4.64928
2.44	4.67428
2.45	4.70619
2.46	4.67329
2.47	4.65651
2.48	4.64138
2.49	4.67362
2.5	4.63151
2.51	4.66211
2.52	4.68415
2.53	4.65684
2.54	4.61079
2.55	4.63711
2.56	4.62263
2.57	4.6325
2.58	4.66737
2.59	4.67428
2.6	4.63743
2.61	4.60816
2.62	4.59072
2.63	4.62395
2.64	4.67395
2.65	4.65322
2.66	4.63546
2.67	4.645
2.68	4.65125
2.69	4.63184
2.7	4.6598
2.71	4.61934
2.72	4.60947
2.73	4.65322
2.74	4.6723
2.75	4.64895
2.76	4.64434
2.77	4.63645
2.78	4.63086
2.79	4.62296
2.8	4.60947
2.81	4.59763
2.82	4.60191
2.83	4.60454
2.84	4.59533
2.85	4.65882
2.86	4.58118
2.87	4.59632
2.88	4.65257
2.89	4.65454
2.9	4.61441
2.91	4.56934
2.92	4.62362
2.93	4.62197
2.94	4.62691
2.95	4.59829
2.96	4.62362
2.97	4.59138
2.98	4.57493
2.99	4.595
3	4.5598
3.01	4.61441
3.02	4.62395
3.03	4.58809
3.04	4.62888
3.05	4.61671
3.06	4.61737
3.07	4.63349
3.08	4.62625
3.09	4.61375
3.1	4.61145
3.11	4.57329
3.12	4.59993
3.13	4.60355
3.14	4.61145
3.15	4.62921
3.16	4.58217
3.17	4.60322
3.18	4.58645
3.19	4.61901
3.2	4.61342
3.21	4.59862
3.22	4.62428
3.23	4.60717
3.24	4.57789
3.25	4.58316
3.26	4.5871
3.27	4.56408
3.28	4.57822
3.29	4.57526
3.3	4.59632
3.31	4.55684
3.32	4.56605
3.33	4.57362
3.34	4.59632
3.35	4.57756
3.36	4.58974
3.37	4.5677
3.38	4.60355
3.39	4.58513
3.4	4.56835
3.41	4.5825
3.42	4.57362
3.43	4.55849
3.44	4.56079
3.45	4.55355
3.46	4.54895
3.47	4.5848
3.48	4.57625
3.49	4.55487
3.5	4.59039
3.51	4.54598
3.52	4.5246
3.53	4.58743
3.54	4.58974
3.55	4.59467
3.56	4.57691
3.57	4.56243
3.58	4.56737
3.59	4.58349
3.6	4.56408
3.61	4.59928
3.62	4.56408
3.63	4.58678
3.64	4.5848
3.65	4.56441
3.66	4.56112
3.67	4.58217
3.68	4.5621
3.69	4.56901
3.7	4.56835
3.71	4.55816
3.72	4.52065
3.73	4.53414
3.74	4.58085
3.75	4.55223
3.76	4.56375
3.77	4.56868
3.78	4.54927
3.79	4.57888
3.8	4.56441
3.81	4.54401
3.82	4.55125
3.83	4.57625
3.84	4.54862
3.85	4.55487
3.86	4.56309
3.87	4.57033
3.88	4.5427
3.89	4.54401
3.9	4.52098
3.91	4.51572
3.92	4.55421
3.93	4.5575
3.94	4.56046
3.95	4.56605
3.96	4.54401
3.97	4.52723
3.98	4.56276
3.99	4.54993
4	4.56802
4.01	4.55059
4.02	4.52855
4.03	4.51737
4.04	4.52131
4.05	4.51901
4.06	4.55322
4.07	4.50223
4.08	4.54697
4.09	4.52987
4.1	4.48644
4.11	4.49039
4.12	4.51375
4.13	4.4894
4.14	4.46802
4.15	4.50289
4.16	4.53579
4.17	4.54138
4.18	4.52197
4.19	4.49335
4.2	4.50848
4.21	4.51079
4.22	4.48447
4.23	4.51704
4.24	4.52987
4.25	4.51572
4.26	4.52033
4.27	4.50026
4.28	4.50256
4.29	4.51572
4.3	4.50289
4.31	4.51835
4.32	4.50914
4.33	4.5075
4.34	4.56539
4.35	4.55092
4.36	4.50881
4.37	4.48908
4.38	4.48677
4.39	4.49072
4.4	4.52033
4.41	4.51638
4.42	4.51737
4.43	4.46375
4.44	4.46309
4.45	4.49796
4.46	4.48019
4.47	4.48184
4.48	4.49302
4.49	4.51802
4.5	4.53973
4.51	4.55125
4.52	4.53085
4.53	4.46506
4.54	4.45651
4.55	4.46769
4.56	4.5019
4.57	4.49631
4.58	4.495
4.59	4.52559
4.6	4.51144
4.61	4.52296
4.62	4.50092
4.63	4.44796
4.64	4.52789
4.65	4.53875
4.66	4.48875
4.67	4.51868
4.68	4.49269
4.69	4.47065
4.7	4.46046
4.71	4.47592
4.72	4.49763
4.73	4.46342
4.74	4.51737
4.75	4.49664
4.76	4.48677
4.77	4.49269
4.78	4.50158
4.79	4.495
4.8	4.48875
4.81	4.51934
4.82	4.46901
4.83	4.47822
4.84	4.48381
4.85	4.49335
4.86	4.49006
4.87	4.49368
4.88	4.47888
4.89	4.48973
4.9	4.4825
4.91	4.49171
4.92	4.50158
4.93	4.49894
4.94	4.45519
4.95	4.4519
4.96	4.46835
4.97	4.48019
4.98	4.47855
4.99	4.44763
5	4.47164
5.01	4.44072
5.02	4.44927
5.03	4.42756
5.04	4.46605
5.05	4.47723
5.06	4.44434
5.07	4.47296
5.08	4.49039
5.09	4.45519
5.1	4.47427
5.11	4.46967
5.12	4.46736
5.13	4.49039
5.14	4.49434
5.15	4.51605
5.16	4.43644
5.17	4.46013
5.18	4.49368
5.19	4.45519
5.2	4.46144
5.21	4.46605
5.22	4.45914
5.23	4.47
5.24	4.49039
5.25	4.44861
5.26	4.46473
5.27	4.45585
5.28	4.44598
5.29	4.46407
5.3	4.46309
5.31	4.41769
5.32	4.44006
5.33	4.45322
5.34	4.4098
5.35	4.43381
5.36	4.43052
5.37	4.43973
5.38	4.42427
5.39	4.42394
5.4	4.4473
5.41	4.47592
5.42	4.45848
5.43	4.4519
5.44	4.41506
5.45	4.41572
5.46	4.4246
5.47	4.43151
5.48	4.42657
5.49	4.41374
5.5	4.44368
5.51	4.4042
5.52	4.44105
5.53	4.45815
5.54	4.44664
5.55	4.41243
5.56	4.42493
5.57	4.42164
5.58	4.44993
5.59	4.44631
5.6	4.42032
5.61	4.41703
5.62	4.43545
5.63	4.44105
5.64	4.43874
5.65	4.44697
5.66	4.42394
5.67	4.41374
5.68	4.4246
5.69	4.43184
5.7	4.43414
5.71	4.44467
5.72	4.43315
5.73	4.40947
5.74	4.4223
5.75	4.41374
5.76	4.40157
5.77	4.42361
5.78	4.42624
5.79	4.41144
5.8	4.3917
5.81	4.39532
5.82	4.43151
5.83	4.33808
5.84	4.43052
5.85	4.43151
5.86	4.46539
5.87	4.42723
5.88	4.43315
5.89	4.39927
5.9	4.37887
5.91	4.4019
5.92	4.40881
5.93	4.40914
5.94	4.42756
5.95	4.42624
5.96	4.43348
5.97	4.45256
5.98	4.42032
5.99	4.42032
6	4.41539
6.01	4.40519
6.02	4.40355
6.03	4.4167
6.04	4.37657
6.05	4.46078
6.06	4.42361
6.07	4.37328
6.08	4.3871
6.09	4.43644
6.1	4.39269
6.11	4.38249
6.12	4.39993
6.13	4.38973
6.14	4.39631
6.15	4.38216
6.16	4.38183
6.17	4.41703
6.18	4.39598
6.19	4.37558
6.2	4.4246
6.21	4.43184
6.22	4.38249
6.23	4.37756
6.24	4.37131
6.25	4.37328
6.26	4.39302
6.27	4.3667
6.28	4.38512
6.29	4.41769
6.3	4.41309
6.31	4.36769
6.32	4.37328
6.33	4.38183
6.34	4.38315
6.35	4.3848
6.36	4.3996
6.37	4.37789
6.38	4.34499
6.39	4.36473
6.4	4.3769
6.41	4.3792
6.42	4.36999
6.43	4.38183
6.44	4.34762
6.45	4.38315
6.46	4.40387
6.47	4.38019
6.48	4.39434
6.49	4.36111
6.5	4.3871
6.51	4.44138
6.52	4.44401
6.53	4.39401
6.54	4.36012
6.55	4.4098
6.56	4.41769
6.57	4.42295
6.58	4.40453
6.59	4.38414
6.6	4.38973
6.61	4.38644
6.62	4.39598
6.63	4.39762
6.64	4.43184
6.65	4.41144
6.66	4.37493
6.67	4.39072
6.68	4.35782
6.69	4.37756
6.7	4.3496
6.71	4.35322
6.72	4.37394
6.73	4.37591
6.74	4.36835
6.75	4.35387
6.76	4.36341
6.77	4.38874
6.78	4.36835
6.79	4.35716
6.8	4.38545
6.81	4.3973
6.82	4.34236
6.83	4.35716
6.84	4.38151
6.85	4.34335
6.86	4.33874
6.87	4.34598
6.88	4.37526
6.89	4.36933
6.9	4.37032
6.91	4.35716
6.92	4.36341
6.93	4.37361
6.94	4.33348
6.95	4.37624
6.96	4.40157
6.97	4.37591
6.98	4.29729
6.99	4.34729
7	4.37262
7.01	4.35354
7.02	4.30946
7.03	4.3144
7.04	4.34335
7.05	4.36966
7.06	4.33545
7.07	4.33874
7.08	4.3394
7.09	4.344
7.1	4.32032
7.11	4.33677
7.12	4.33019
7.13	4.31802
7.14	4.32328
7.15	4.30058
7.16	4.32854
7.17	4.36933
7.18	4.34006
7.19	4.34137
7.2	4.30288
7.21	4.32789
7.22	4.35354
7.23	4.32591
7.24	4.3246
7.25	4.33677
7.26	4.35651
7.27	4.34072
7.28	4.36637
7.29	4.30223
7.3	4.31308
7.31	4.30881
7.32	4.29466
7.33	4.34466
7.34	4.30025
7.35	4.29499
7.36	4.32986
7.37	4.35651
7.38	4.37295
7.39	4.33446
7.4	4.31506
7.41	4.32986
7.42	4.344
7.43	4.34269
7.44	4.34466
7.45	4.32657
7.46	4.30223
7.47	4.3167
7.48	4.35453
7.49	4.35716
7.5	4.33907
7.51	4.32131
7.52	4.32262
7.53	4.32887
7.54	4.34795
7.55	4.28315
7.56	4.31736
7.57	4.35486
7.58	4.31341
7.59	4.31078
7.6	4.30914
7.61	4.36341
7.62	4.35815
7.63	4.36736
7.64	4.34828
7.65	4.3371
7.66	4.34664
7.67	4.31802
7.68	4.34236
7.69	4.36637
7.7	4.32756
7.71	4.29828
7.72	4.31012
7.73	4.31933
7.74	4.33282
7.75	4.33874
7.76	4.32361
7.77	4.34039
7.78	4.34137
7.79	4.32493
7.8	4.2917
7.81	4.30387
7.82	4.29269
7.83	4.31999
7.84	4.28973
7.85	4.30782
7.86	4.31242
7.87	4.29565
7.88	4.31604
7.89	4.34368
7.9	4.35486
7.91	4.32065
7.92	4.28973
7.93	4.31769
7.94	4.31769
7.95	4.26834
7.96	4.29795
7.97	4.32887
7.98	4.31144
7.99	4.29335
8	4.3019
8.01	4.29302
8.02	4.31506
8.03	4.34039
8.04	4.32164
8.05	4.34697
8.06	4.344
8.07	4.29532
8.08	4.33874
8.09	4.31177
8.1	4.2917
8.11	4.28216
8.12	4.28479
8.13	4.29269
8.14	4.31933
8.15	4.34006
8.16	4.32229
8.17	4.30354
8.18	4.3371
8.19	4.31571
8.2	4.27459
8.21	4.29631
8.22	4.29006
8.23	4.30848
8.24	4.319
8.25	4.27756
8.26	4.29992
8.27	4.29433
8.28	4.26867
8.29	4.30946
8.3	4.32821
8.31	4.34795
8.32	4.30486
8.33	4.3542
8.34	4.35058
8.35	4.3246
8.36	4.28479
8.37	4.3315
8.38	4.30025
8.39	4.26341
8.4	4.30749
8.41	4.29992
8.42	4.30782
8.43	4.28183
8.44	4.25486
8.45	4.30881
8.46	4.30881
8.47	4.29203
8.48	4.28677
8.49	4.27525
8.5	4.28709
8.51	4.3065
8.52	4.31144
8.53	4.27427
8.54	4.27723
8.55	4.28611
8.56	4.26933
8.57	4.30157
8.58	4.26374
8.59	4.26637
8.6	4.30256
8.61	4.29762
8.62	4.28841
8.63	4.29466
8.64	4.27032
8.65	4.30256
8.66	4.28709
8.67	4.3019
8.68	4.28249
8.69	4.26012
8.7	4.23611
8.71	4.24005
8.72	4.28775
8.73	4.2644
8.74	4.29137
8.75	4.28117
8.76	4.25486
8.77	4.28907
8.78	4.25946
8.79	4.30519
8.8	4.30782
8.81	4.28709
8.82	4.2815
8.83	4.2815
8.84	4.31769
8.85	4.344
8.86	4.27953
8.87	4.29466
8.88	4.29631
8.89	4.28709
8.9	4.27756
8.91	4.2815
8.92	4.27196
8.93	4.27427
8.94	4.26407
8.95	4.28019
8.96	4.29598
8.97	4.25716
8.98	4.29302
8.99	4.25617
9	4.2644
9.01	4.27821
9.02	4.28413
9.03	4.24861
9.04	4.27361
9.05	4.26209
9.06	4.24762
9.07	4.26966
9.08	4.26374
9.09	4.31012
9.1	4.25749
9.11	4.24499
9.12	4.24762
9.13	4.25157
9.14	4.26933
9.15	4.27525
9.16	4.26407
9.17	4.25946
9.18	4.2815
9.19	4.29071
9.2	4.29104
9.21	4.2315
9.22	4.25387
9.23	4.25848
9.24	4.27459
9.25	4.26473
9.26	4.22854
9.27	4.30354
9.28	4.29367
9.29	4.25848
9.3	4.26604
9.31	4.28315
9.32	4.30683
9.33	4.28677
9.34	4.26242
9.35	4.2565
9.36	4.2792
9.37	4.27788
9.38	4.28545
9.39	4.25979
9.4	4.28808
9.41	4.25157
9.42	4.27459
9.43	4.26538
9.44	4.27459
9.45	4.28644
9.46	4.27953
9.47	4.24795
9.48	4.269
9.49	4.22887
9.5	4.25255
9.51	4.27953
9.52	4.2644
9.53	4.24236
9.54	4.24663
9.55	4.24729
9.56	4.2394
9.57	4.26538
9.58	4.28052
9.59	4.28315
9.6	4.29894
9.61	4.28216
9.62	4.30025
9.63	4.28709
9.64	4.244
9.65	4.25913
9.66	4.25617
9.67	4.26374
9.68	4.25387
9.69	4.25321
9.7	4.2519
9.71	4.22032
9.72	4.2213
9.73	4.23282
9.74	4.24926
9.75	4.28545
9.76	4.22953
9.77	4.24894
9.78	4.23051
9.79	4.2338
9.8	4.27953
9.81	4.25321
9.82	4.24663
9.83	4.2519
9.84	4.24729
9.85	4.28084
9.86	4.28512
9.87	4.2542
9.88	4.22394
9.89	4.22032
9.9	4.25091
9.91	4.24992
9.92	4.2542
9.93	4.25782
9.94	4.27525
9.95	4.27262
9.96	4.23644
9.97	4.26308
9.98	4.28611
9.99	4.26242
10	4.25354
10.01	4.22591
10.02	4.27032
10.03	4.28052
10.04	4.26867
10.05	4.23282
10.06	4.27887
10.07	4.26144
10.08	4.21407
10.09	4.28644
10.1	4.21966
10.11	4.23479
10.12	4.23051
10.13	4.22032
10.14	4.25321
10.15	4.22657
10.16	4.2542
10.17	4.2463
10.18	4.29795
10.19	4.29038
10.2	4.2588
10.21	4.26407
10.22	4.23611
10.23	4.25255
10.24	4.22097
10.25	4.26045
10.26	4.26374
10.27	4.23315
10.28	4.23973
10.29	4.2065
10.3	4.22591
10.31	4.24301
10.32	4.2713
10.33	4.23019
10.34	4.23216
10.35	4.22426
10.36	4.25716
10.37	4.21472
10.38	4.18183
10.39	4.19926
10.4	4.23084
10.41	4.23775
10.42	4.24663
10.43	4.21867
10.44	4.22657
10.45	4.2417
10.46	4.25946
10.47	4.21604
10.48	4.22097
10.49	4.24762
10.5	4.22229
10.51	4.23907
10.52	4.23644
10.53	4.25848
10.54	4.24203
10.55	4.22295
10.56	4.25124
10.57	4.26834
10.58	4.2542
10.59	4.20749
10.6	4.19005
10.61	4.22788
10.62	4.22394
10.63	4.21604
10.64	4.21078
10.65	4.2463
10.66	4.23973
10.67	4.22525
10.68	4.21505
10.69	4.20189
10.7	4.26012
10.71	4.20025
10.72	4.17262
10.73	4.22525
10.74	4.21604
10.75	4.25223
10.76	4.22295
10.77	4.19466
10.78	4.17953
10.79	4.19268
10.8	4.1917
10.81	4.21374
10.82	4.23315
10.83	4.19696
10.84	4.20157
10.85	4.22328
10.86	4.21933
10.87	4.20486
10.88	4.19236
10.89	4.169
10.9	4.21571
10.91	4.24367
10.92	4.23611
10.93	4.22821
10.94	4.21045
10.95	4.23019
10.96	4.22163
10.97	4.23973
10.98	4.25683
10.99	4.22295
11	4.2088
11.01	4.21867
11.02	4.20321
11.03	4.23084
11.04	4.22525
11.05	4.24005
11.06	4.20518
11.07	4.17689
11.08	4.20584
11.09	4.23051
11.1	4.20782
11.11	4.22953
11.12	4.20124
11.13	4.2167
11.14	4.24762
11.15	4.23019
11.16	4.24071
11.17	4.23216
11.18	4.21275
11.19	4.19597
11.2	4.22262
11.21	4.23578
11.22	4.23611
11.23	4.22097
11.24	4.16604
11.25	4.20913
11.26	4.1917
11.27	4.17031
11.28	4.19532
11.29	4.22394
11.3	4.17262
11.31	4.23742
11.32	4.22262
11.33	4.1815
11.34	4.18939
11.35	4.15749
11.36	4.1815
11.37	4.21308
11.38	4.24038
11.39	4.20124
11.4	4.18939
11.41	4.22196
11.42	4.22624
11.43	4.2088
11.44	4.21012
11.45	4.18775
11.46	4.20847
11.47	4.19334
11.48	4.1736
11.49	4.20025
11.5	4.17887
11.51	4.19334
11.52	4.20058
11.53	4.19334
11.54	4.21505
11.55	4.25453
11.56	4.19268
11.57	4.18545
11.58	4.19696
11.59	4.19992
11.6	4.19301
11.61	4.18347
11.62	4.20091
11.63	4.1861
11.64	4.20617
11.65	4.23676
11.66	4.16571
11.67	4.20255
11.68	4.18841
11.69	4.17492
11.7	4.18676
11.71	4.1861
11.72	4.19499
11.73	4.20124
11.74	4.18578
11.75	4.20387
11.76	4.21209
11.77	4.20354
11.78	4.2167
11.79	4.21538
11.8	4.21111
11.81	4.22657
11.82	4.21308
11.83	4.17558
11.84	4.22196
11.85	4.18216
11.86	4.21078
11.87	4.20157
11.88	4.19104
11.89	4.22295
11.9	4.15551
11.91	4.16768
11.92	4.22032
11.93	4.20979
11.94	4.16505
11.95	4.16012
11.96	4.16341
11.97	4.17031
11.98	4.19301
11.99	4.19137
12	4.20222
12.01	4.16078
12.02	4.20189
12.03	4.19301
12.04	4.194
12.05	4.22097
12.06	4.21341
12.07	4.21505
12.08	4.18446
12.09	4.16801
12.1	4.18018
12.11	4.18512
12.12	4.22887
12.13	4.20091
12.14	4.18578
12.15	4.15749
12.16	4.20683
12.17	4.20683
12.18	4.16768
12.19	4.20124
12.2	4.18939
12.21	4.22722
12.22	4.21505
12.23	4.20782
12.24	4.19926
12.25	4.19104
12.26	4.20913
12.27	4.20189
12.28	4.17426
12.29	4.16275
12.3	4.21604
12.31	4.20354
12.32	4.19301
12.33	4.15617
12.34	4.16209
12.35	4.17492
12.36	4.16768
12.37	4.1815
12.38	4.18709
12.39	4.17953
12.4	4.15518
12.41	4.20518
12.42	4.23841
12.43	4.19926
12.44	4.1713
12.45	4.20124
12.46	4.19992
12.47	4.17821
12.48	4.17722
12.49	4.16801
12.5	4.22295
12.51	4.2042
12.52	4.18446
12.53	4.20091
12.54	4.19203
12.55	4.22459
12.56	4.16275
12.57	4.14071
12.58	4.18216
12.59	4.18643
12.6	4.21801
12.61	4.20124
12.62	4.16045
12.63	4.18545
12.64	4.15321
12.65	4.18775
12.66	4.1792
12.67	4.22163
12.68	4.17985
12.69	4.22163
12.7	4.16703
12.71	4.16078
12.72	4.18874
12.73	4.17821
12.74	4.23347
12.75	4.17821
12.76	4.21637
12.77	4.16374
12.78	4.18018
12.79	4.2088
12.8	4.18413
12.81	4.2042
12.82	4.194
12.83	4.18051
12.84	4.15946
12.85	4.18347
12.86	4.17295
12.87	4.15255
12.88	4.18018
12.89	4.13775
12.9	4.12426
12.91	4.19203
12.92	4.14597
12.93	4.17328
12.94	4.17689
12.95	4.17295
12.96	4.17393
12.97	4.18413
12.98	4.17985
12.99	4.1792
13	4.16966
13.01	4.17097
13.02	4.18446
13.03	4.16209
13.04	4.1917
13.05	4.18808
13.06	4.18808
13.07	4.17262
13.08	4.17722
13.09	4.19334
13.1	4.17229
13.11	4.219
13.12	4.19532
13.13	4.16176
13.14	4.17163
13.15	4.21341
13.16	4.20453
13.17	4.14959
13.18	4.18939
13.19	4.16275
13.2	4.17558
13.21	4.19828
13.22	4.19334
13.23	4.15124
13.24	4.14466
13.25	4.14334
13.26	4.12459
13.27	4.16933
13.28	4.17591
13.29	4.15387
13.3	4.14071
13.31	4.18479
13.32	4.17985
13.33	4.19466
13.34	4.16867
13.35	4.17196
13.36	4.16176
13.37	4.18775
13.38	4.16406
13.39	4.19301
13.4	4.18183
13.41	4.18643
13.42	4.13084
13.43	4.12031
13.44	4.16637
13.45	4.17328
13.46	4.16045
13.47	4.11735
13.48	4.15452
13.49	4.14301
13.5	4.13841
13.51	4.16735
13.52	4.17426
13.53	4.17393
13.54	4.19828
13.55	4.17031
13.56	4.15321
13.57	4.14959
13.58	4.16703
13.59	4.10716
13.6	4.14466
13.61	4.17722
13.62	4.18117
13.63	4.17328
13.64	4.16341
13.65	4.16571
13.66	4.17558
13.67	4.13676
13.68	4.15091
13.69	4.15847
13.7	4.17624
13.71	4.13117
13.72	4.12459
13.73	4.13084
13.74	4.13874
13.75	4.15683
