"BIO-KINE ASCII FILE"
"_COMMENT"	"MOS-500 Spectrometer"
"_COMMENT"	"Kinetics measurement"
"_COMMENT"	"Y Unit : Volt,  X Unit : s"
"_COMMENT"	"Excitation wavelength : 380 nm"
"_COMMENT"	"Fentes bandwidth =  1 nm"
"_COMMENT"	"HV= 750V"
"_COMMENT"	"Timebase  1 =  .01 s   3001 pts"
"_SFM"	"SFM-400 /S  Advanced mode"
"_SFM"	"Ratio : S1: 2.5, S2: 0, S3: 0, S4: 1"
"_SFM"	"Content : S1: , S2: , S3: , S4:"
"_SFM"	"Concentration : S1: , S2: , S3: , S4:"
"_SFM"	"Total volume : 209 µl  Flow : 3.5 mL/s"
"_SFM"	"Acquisition start :  10 ms before stop"
"_SFM"	"cuve=FC-15, s1=10 ml , s2=10 ml , s3=10 ml , s4=1.9 ml"
"_UNITX"	"s"
"_UNITY"	"Volt"
"_DELTAX"	0
"_DATA"
1e-300	7.00329
0.01	7.44936
0.02	7.65265
0.03	7.65035
0.04	7.67042
0.05	7.67831
0.06	7.6691
0.07	7.67338
0.08	7.67535
0.09	7.68324
0.1	7.68851
0.11	7.67897
0.12	7.70232
0.13	7.68917
0.14	7.68423
0.15	7.6691
0.16	7.67963
0.17	7.69607
0.18	7.67831
0.19	7.67009
0.2	7.68259
0.21	7.68226
0.22	7.65857
0.23	7.67403
0.24	7.67403
0.25	7.66384
0.26	7.66153
0.27	7.65463
0.28	7.64344
0.29	7.66055
0.3	7.65035
0.31	7.64443
0.32	7.65824
0.33	7.63094
0.34	7.61351
0.35	7.62008
0.36	7.63094
0.37	7.60857
0.38	7.59179
0.39	7.59607
0.4	7.6112
0.41	7.59476
0.42	7.5839
0.43	7.58686
0.44	7.59311
0.45	7.56811
0.46	7.5487
0.47	7.55396
0.48	7.55396
0.49	7.54804
0.5	7.53554
0.51	7.52502
0.52	7.54146
0.53	7.53225
0.54	7.526
0.55	7.51317
0.56	7.52535
0.57	7.51383
0.58	7.51844
0.59	7.50166
0.6	7.48916
0.61	7.48883
0.62	7.49738
0.63	7.4839
0.64	7.47041
0.65	7.46548
0.66	7.46219
0.67	7.46317
0.68	7.44607
0.69	7.44376
0.7	7.43554
0.71	7.42534
0.72	7.40922
0.73	7.41613
0.74	7.41679
0.75	7.40857
0.76	7.40955
0.77	7.38916
0.78	7.36843
0.79	7.40265
0.8	7.38554
0.81	7.38061
0.82	7.37567
0.83	7.37896
0.84	7.37699
0.85	7.3635
0.86	7.35264
0.87	7.34508
0.88	7.32666
0.89	7.33192
0.9	7.32567
0.91	7.32337
0.92	7.33258
0.93	7.32008
0.94	7.30823
0.95	7.30856
0.96	7.30462
0.97	7.30067
0.98	7.28883
0.99	7.28126
1	7.28225
1.01	7.26777
1.02	7.27633
1.03	7.27896
1.04	7.26843
1.05	7.26843
1.06	7.24343
1.07	7.2454
1.08	7.23554
1.09	7.22402
1.1	7.23751
1.11	7.25363
1.12	7.21646
1.13	7.22435
1.14	7.2056
1.15	7.20297
1.16	7.18948
1.17	7.18718
1.18	7.18455
1.19	7.18948
1.2	7.17073
1.21	7.1533
1.22	7.14145
1.23	7.14869
1.24	7.15527
1.25	7.1431
1.26	7.14244
1.27	7.13784
1.28	7.13126
1.29	7.11711
1.3	7.1204
1.31	7.12402
1.32	7.11777
1.33	7.10922
1.34	7.08586
1.35	7.09705
1.36	7.10889
1.37	7.07994
1.38	7.05691
1.39	7.05922
1.4	7.05691
1.41	7.06218
1.42	7.05099
1.43	7.0477
1.44	7.02204
1.45	7.02961
1.46	7.03981
1.47	7.03257
1.48	7.02106
1.49	7.01514
1.5	7.01579
1.51	7.00395
1.52	6.98553
1.53	6.98816
1.54	6.98652
1.55	6.98882
1.56	6.97336
1.57	6.95724
1.58	6.96283
1.59	6.96316
1.6	6.95132
1.61	6.95329
1.62	6.94309
1.63	6.93454
1.64	6.93816
1.65	6.91974
1.66	6.90132
1.67	6.91711
1.68	6.9125
1.69	6.90461
1.7	6.90625
1.71	6.88026
1.72	6.87862
1.73	6.87993
1.74	6.88388
1.75	6.86908
1.76	6.84901
1.77	6.85691
1.78	6.87204
1.79	6.84967
1.8	6.83289
1.81	6.83618
1.82	6.8273
1.83	6.82631
1.84	6.84013
1.85	6.83026
1.86	6.79901
1.87	6.81085
1.88	6.80658
1.89	6.79539
1.9	6.78059
1.91	6.8023
1.92	6.79605
1.93	6.78618
1.94	6.77105
1.95	6.77434
1.96	6.76612
1.97	6.74342
1.98	6.74111
1.99	6.7444
2	6.74079
2.01	6.73585
2.02	6.72467
2.03	6.73256
2.04	6.7296
2.05	6.70986
2.06	6.70164
2.07	6.69473
2.08	6.69013
2.09	6.68388
2.1	6.69539
2.11	6.67565
2.12	6.66052
2.13	6.65032
2.14	6.65624
2.15	6.67236
2.16	6.6546
2.17	6.65624
2.18	6.63322
2.19	6.63684
2.2	6.64341
2.21	6.61611
2.22	6.6148
2.23	6.6171
2.24	6.61249
2.25	6.60855
2.26	6.6069
2.27	6.60394
2.28	6.58815
2.29	6.58354
2.3	6.58026
2.31	6.56874
2.32	6.57039
2.33	6.5615
2.34	6.55624
2.35	6.54506
2.36	6.53091
2.37	6.53486
2.38	6.54144
2.39	6.53223
2.4	6.52466
2.41	6.53782
2.42	6.5046
2.43	6.50756
2.44	6.50657
2.45	6.49834
2.46	6.49867
2.47	6.50196
2.48	6.48519
2.49	6.47433
2.5	6.45558
2.51	6.46183
2.52	6.47236
2.53	6.45558
2.54	6.45986
2.55	6.45986
2.56	6.45755
2.57	6.46249
2.58	6.45755
2.59	6.43584
2.6	6.43946
2.61	6.41578
2.62	6.42203
2.63	6.41512
2.64	6.40196
2.65	6.40328
2.66	6.38847
2.67	6.38222
2.68	6.38255
2.69	6.37926
2.7	6.37564
2.71	6.37663
2.72	6.37762
2.73	6.34999
2.74	6.35426
2.75	6.35328
2.76	6.36018
2.77	6.33551
2.78	6.33091
2.79	6.33781
2.8	6.33617
2.81	6.32202
2.82	6.30722
2.83	6.31216
2.84	6.29801
2.85	6.3115
2.86	6.30426
2.87	6.29209
2.88	6.27729
2.89	6.2809
2.9	6.2865
2.91	6.27564
2.92	6.27893
2.93	6.2684
2.94	6.25919
2.95	6.25985
2.96	6.25097
2.97	6.25952
2.98	6.25163
2.99	6.24604
3	6.2411
3.01	6.25064
3.02	6.22367
3.03	6.22038
3.04	6.21643
3.05	6.22038
3.06	6.20985
3.07	6.17597
3.08	6.18485
3.09	6.18485
3.1	6.19143
3.11	6.19077
3.12	6.19735
3.13	6.16709
3.14	6.16709
3.15	6.1707
3.16	6.16413
3.17	6.14866
3.18	6.15853
3.19	6.16215
3.2	6.13287
3.21	6.1411
3.22	6.13287
3.23	6.12597
3.24	6.11511
3.25	6.1082
3.26	6.11478
3.27	6.09965
3.28	6.09472
3.29	6.10393
3.3	6.098
3.31	6.08518
3.32	6.10952
3.33	6.09077
3.34	6.07333
3.35	6.0855
3.36	6.05327
3.37	6.07333
3.38	6.06675
3.39	6.05985
3.4	6.05656
3.41	6.04702
3.42	6.02267
3.43	6.02399
3.44	6.03156
3.45	6.01906
3.46	6.00655
3.47	6.01971
3.48	6.00787
3.49	6.01774
3.5	6.00294
3.51	5.98912
3.52	5.98123
3.53	5.99833
3.54	5.9855
3.55	5.97761
3.56	5.9707
3.57	5.97267
3.58	5.97596
3.59	5.96478
3.6	5.95951
3.61	5.94866
3.62	5.95063
3.63	5.95458
3.64	5.94504
3.65	5.93978
3.66	5.91741
3.67	5.94043
3.68	5.93484
3.69	5.92464
3.7	5.91445
3.71	5.91149
3.72	5.90063
3.73	5.89274
3.74	5.90228
3.75	5.89076
3.76	5.89109
3.77	5.87629
3.78	5.87135
3.79	5.87497
3.8	5.87431
3.81	5.86116
3.82	5.83583
3.83	5.85754
3.84	5.84997
3.85	5.83879
3.86	5.82958
3.87	5.84109
3.88	5.8253
3.89	5.81839
3.9	5.8049
3.91	5.81247
3.92	5.82398
3.93	5.81971
3.94	5.82563
3.95	5.82004
3.96	5.79865
3.97	5.78944
3.98	5.79175
3.99	5.77859
4	5.78648
4.01	5.78385
4.02	5.78122
4.03	5.78582
4.04	5.76642
4.05	5.75852
4.06	5.75457
4.07	5.76017
4.08	5.74372
4.09	5.7526
4.1	5.74438
4.11	5.74964
4.12	5.74405
4.13	5.73418
4.14	5.72201
4.15	5.72727
4.16	5.71477
4.17	5.72464
4.18	5.71707
4.19	5.72168
4.2	5.70424
4.21	5.71016
4.22	5.69766
4.23	5.69832
4.24	5.68089
4.25	5.68582
4.26	5.69898
4.27	5.68418
4.28	5.66444
4.29	5.6822
4.3	5.66279
4.31	5.67168
4.32	5.65951
4.33	5.64339
4.34	5.64832
4.35	5.65293
4.36	5.64404
4.37	5.62628
4.38	5.6401
4.39	5.63418
4.4	5.62135
4.41	5.61148
4.42	5.61608
4.43	5.62793
4.44	5.60753
4.45	5.61016
4.46	5.57924
4.47	5.60424
4.48	5.58911
4.49	5.58253
4.5	5.58944
4.51	5.59306
4.52	5.56279
4.53	5.57661
4.54	5.57332
4.55	5.59075
4.56	5.57266
4.57	5.56542
4.58	5.56904
4.59	5.55917
4.6	5.54963
4.61	5.5447
4.62	5.54371
4.63	5.53187
4.64	5.53088
4.65	5.53713
4.66	5.52891
4.67	5.52101
4.68	5.51772
4.69	5.5197
4.7	5.51476
4.71	5.51082
4.72	5.49075
4.73	5.50819
4.74	5.50786
4.75	5.50391
4.76	5.48647
4.77	5.49536
4.78	5.49305
4.79	5.50457
4.8	5.48384
4.81	5.48647
4.82	5.47989
4.83	5.47858
4.84	5.48483
4.85	5.47068
4.86	5.46279
4.87	5.46575
4.88	5.4595
4.89	5.47167
4.9	5.44437
4.91	5.44766
4.92	5.43943
4.93	5.43845
4.94	5.45062
4.95	5.43187
4.96	5.42167
4.97	5.42397
4.98	5.422
4.99	5.41608
5	5.43384
5.01	5.43384
5.02	5.41345
5.03	5.40588
5.04	5.4072
5.05	5.39535
5.06	5.40095
5.07	5.38285
5.08	5.40226
5.09	5.38154
5.1	5.38121
5.11	5.39141
5.12	5.38055
5.13	5.38877
5.14	5.36509
5.15	5.36937
5.16	5.35917
5.17	5.35686
5.18	5.3516
5.19	5.35621
5.2	5.34996
5.21	5.34634
5.22	5.34371
5.23	5.34075
5.24	5.32167
5.25	5.33318
5.26	5.32561
5.27	5.31706
5.28	5.3243
5.29	5.32627
5.3	5.32035
5.31	5.32167
5.32	5.31278
5.33	5.30588
5.34	5.30324
5.35	5.29305
5.36	5.29535
5.37	5.28548
5.38	5.29634
5.39	5.28055
5.4	5.27792
5.41	5.27199
5.42	5.27166
5.43	5.26969
5.44	5.27594
5.45	5.27199
5.46	5.27199
5.47	5.2641
5.48	5.25884
5.49	5.25226
5.5	5.2618
5.51	5.24765
5.52	5.23548
5.53	5.24337
5.54	5.23976
5.55	5.23745
5.56	5.22726
5.57	5.23153
5.58	5.23515
5.59	5.22199
5.6	5.21706
5.61	5.22166
5.62	5.21048
5.63	5.21377
5.64	5.21936
5.65	5.21804
5.66	5.22331
5.67	5.20094
5.68	5.20719
5.69	5.18811
5.7	5.19831
5.71	5.19929
5.72	5.18844
5.73	5.19008
5.74	5.19633
5.75	5.19074
5.76	5.18219
5.77	5.18975
5.78	5.18614
5.79	5.16739
5.8	5.16344
5.81	5.17002
5.82	5.15488
5.83	5.15587
5.84	5.16179
5.85	5.14896
5.86	5.15094
5.87	5.14271
5.88	5.15752
5.89	5.14831
5.9	5.1335
5.91	5.13252
5.92	5.14271
5.93	5.13252
5.94	5.12429
5.95	5.13021
5.96	5.12791
5.97	5.12232
5.98	5.11673
5.99	5.12199
6	5.12363
6.01	5.10028
6.02	5.11048
6.03	5.11048
6.04	5.1062
6.05	5.09501
6.06	5.10423
6.07	5.10028
6.08	5.09699
6.09	5.0835
6.1	5.10028
6.11	5.07396
6.12	5.08942
6.13	5.05751
6.14	5.07429
6.15	5.07955
6.16	5.06047
6.17	5.05784
6.18	5.05982
6.19	5.07659
6.2	5.07265
6.21	5.06015
6.22	5.06311
6.23	5.05422
6.24	5.05455
6.25	5.0585
6.26	5.04304
6.27	5.03942
6.28	5.05225
6.29	5.04567
6.3	5.03185
6.31	5.03514
6.32	5.02692
6.33	5.01968
6.34	5.02429
6.35	5.03021
6.36	5.01278
6.37	5.02034
6.38	5.01442
6.39	5.00718
6.4	5.00225
6.41	5.00192
6.42	4.99929
6.43	5.00324
6.44	4.99764
6.45	5.00455
6.46	5.00718
6.47	4.99468
6.48	4.99172
6.49	4.9756
6.5	4.98712
6.51	4.98251
6.52	4.9881
6.53	4.97527
6.54	4.97198
6.55	4.97363
6.56	4.98152
6.57	4.9812
6.58	4.9881
6.59	4.97527
6.6	4.96837
6.61	4.97198
6.62	4.98152
6.63	4.97889
6.64	4.9687
6.65	4.95883
6.66	4.95817
6.67	4.95916
6.68	4.96804
6.69	4.95521
6.7	4.96113
6.71	4.95652
6.72	4.9608
6.73	4.93218
6.74	4.93448
6.75	4.93119
6.76	4.94238
6.77	4.95027
6.78	4.93744
6.79	4.91573
6.8	4.91935
6.81	4.9279
6.82	4.921
6.83	4.9108
6.84	4.90422
6.85	4.91211
6.86	4.89731
6.87	4.90685
6.88	4.91343
6.89	4.89435
6.9	4.88218
6.91	4.88909
6.92	4.88711
6.93	4.89271
6.94	4.90586
6.95	4.87692
6.96	4.87659
6.97	4.89369
6.98	4.8904
6.99	4.87396
7	4.87593
7.01	4.88086
7.02	4.87428
7.03	4.87132
7.04	4.87297
7.05	4.87363
7.06	4.8654
7.07	4.85817
7.08	4.85981
7.09	4.86474
7.1	4.8608
7.11	4.84863
7.12	4.84698
7.13	4.84797
7.14	4.83316
7.15	4.83941
7.16	4.84238
7.17	4.83284
7.18	4.84369
7.19	4.83152
7.2	4.82593
7.21	4.83251
7.22	4.82132
7.23	4.83876
7.24	4.83448
7.25	4.82823
7.26	4.82691
7.27	4.81277
7.28	4.8154
7.29	4.82889
7.3	4.82922
7.31	4.83613
7.32	4.81474
7.33	4.82889
7.34	4.80652
7.35	4.80323
7.36	4.81376
7.37	4.79994
7.38	4.81047
7.39	4.79435
7.4	4.77724
7.41	4.78843
7.42	4.7881
7.43	4.79928
7.44	4.79731
7.45	4.7983
7.46	4.79303
7.47	4.78876
7.48	4.78974
7.49	4.78283
7.5	4.78744
7.51	4.7983
7.52	4.77461
7.53	4.75718
7.54	4.76079
7.55	4.76277
7.56	4.76737
7.57	4.77922
7.58	4.76803
7.59	4.7802
7.6	4.76935
7.61	4.77132
7.62	4.77461
7.63	4.7631
7.64	4.76178
7.65	4.745
7.66	4.75191
7.67	4.77
7.68	4.7631
7.69	4.75027
7.7	4.74961
7.71	4.74237
7.72	4.7381
7.73	4.7427
7.74	4.75454
7.75	4.74171
7.76	4.73217
7.77	4.73217
7.78	4.73053
7.79	4.74435
7.8	4.74468
7.81	4.7256
7.82	4.72296
7.83	4.72033
7.84	4.72823
7.85	4.74073
7.86	4.74237
7.87	4.72165
7.88	4.72856
7.89	4.70619
7.9	4.70421
7.91	4.69467
7.92	4.70092
7.93	4.69961
7.94	4.72428
7.95	4.72263
7.96	4.71178
7.97	4.70388
7.98	4.69862
7.99	4.69961
8	4.69566
8.01	4.69994
8.02	4.69698
8.03	4.68546
8.04	4.67921
8.05	4.68612
8.06	4.67987
8.07	4.68546
8.08	4.6927
8.09	4.67987
8.1	4.6848
8.11	4.67592
8.12	4.6802
8.13	4.68283
8.14	4.66836
8.15	4.67691
8.16	4.66507
8.17	4.65684
8.18	4.65915
8.19	4.6654
8.2	4.67165
8.21	4.66803
8.22	4.66244
8.23	4.66803
8.24	4.67362
8.25	4.66934
8.26	4.67329
8.27	4.64928
8.28	4.66638
8.29	4.66309
8.3	4.67033
8.31	4.6598
8.32	4.65158
8.33	4.64599
8.34	4.63579
8.35	4.62888
8.36	4.64237
8.37	4.64072
8.38	4.64204
8.39	4.64665
8.4	4.64665
8.41	4.65191
8.42	4.64467
8.43	4.63086
8.44	4.6325
8.45	4.62329
8.46	4.62888
8.47	4.62296
8.48	4.62099
8.49	4.62724
8.5	4.62954
8.51	4.62362
8.52	4.61605
8.53	4.61211
8.54	4.6223
8.55	4.61408
8.56	4.60849
8.57	4.60882
8.58	4.60059
8.59	4.61507
8.6	4.61868
8.61	4.6052
8.62	4.59763
8.63	4.59566
8.64	4.61342
8.65	4.59763
8.66	4.5973
8.67	4.61375
8.68	4.60882
8.69	4.59664
8.7	4.59993
8.71	4.61046
8.72	4.62066
8.73	4.59664
8.74	4.59796
8.75	4.59335
8.76	4.58776
8.77	4.61178
8.78	4.59566
8.79	4.59237
8.8	4.58743
8.81	4.57066
8.82	4.58513
8.83	4.60322
8.84	4.59467
8.85	4.58283
8.86	4.57888
8.87	4.57296
8.88	4.57789
8.89	4.57
8.9	4.57559
8.91	4.58513
8.92	4.58118
8.93	4.58217
8.94	4.55684
8.95	4.56802
8.96	4.56177
8.97	4.5677
8.98	4.55487
8.99	4.55618
9	4.5677
9.01	4.56638
9.02	4.56046
9.03	4.56506
9.04	4.54401
9.05	4.54335
9.06	4.55487
9.07	4.55585
9.08	4.56145
9.09	4.56441
9.1	4.55552
9.11	4.55289
9.12	4.55717
9.13	4.5598
9.14	4.5473
9.15	4.53414
9.16	4.53019
9.17	4.53776
9.18	4.53414
9.19	4.54335
9.2	4.54862
9.21	4.53283
9.22	4.54664
9.23	4.55256
9.24	4.54566
9.25	4.53644
9.26	4.53316
9.27	4.52756
9.28	4.52263
9.29	4.51704
9.3	4.52723
9.31	4.52493
9.32	4.52592
9.33	4.52987
9.34	4.5246
9.35	4.51177
9.36	4.51408
9.37	4.52987
9.38	4.51737
9.39	4.50684
9.4	4.50651
9.41	4.51638
9.42	4.5098
9.43	4.50684
9.44	4.5144
9.45	4.50881
9.46	4.50256
9.47	4.51769
9.48	4.51737
9.49	4.51769
9.5	4.52164
9.51	4.51342
9.52	4.51079
9.53	4.50783
9.54	4.51079
9.55	4.50158
9.56	4.50421
9.57	4.50289
9.58	4.50322
9.59	4.50651
9.6	4.50092
9.61	4.51013
9.62	4.49269
9.63	4.49072
9.64	4.4996
9.65	4.49829
9.66	4.50026
9.67	4.49138
9.68	4.50421
9.69	4.49697
9.7	4.49236
9.71	4.49796
9.72	4.48677
9.73	4.49138
9.74	4.49401
9.75	4.48513
9.76	4.48579
9.77	4.49467
9.78	4.47789
9.79	4.49039
9.8	4.49171
9.81	4.49039
9.82	4.48447
9.83	4.47361
9.84	4.47427
9.85	4.4825
9.86	4.46375
9.87	4.46539
9.88	4.49072
9.89	4.48118
9.9	4.47065
9.91	4.46671
9.92	4.46078
9.93	4.45914
9.94	4.47
9.95	4.47526
9.96	4.47427
9.97	4.4575
9.98	4.46407
9.99	4.46802
10	4.46309
10.01	4.45092
10.02	4.44894
10.03	4.46243
10.04	4.45881
10.05	4.45421
10.06	4.46013
10.07	4.45092
10.08	4.45157
10.09	4.44927
10.1	4.44565
10.11	4.45782
10.12	4.45782
10.13	4.44598
10.14	4.44927
10.15	4.4519
10.16	4.45157
10.17	4.45881
10.18	4.45355
10.19	4.45486
10.2	4.44763
10.21	4.44335
10.22	4.43611
10.23	4.43348
10.24	4.4473
10.25	4.44302
10.26	4.42295
10.27	4.43611
10.28	4.43907
10.29	4.42986
10.3	4.42953
10.31	4.4246
10.32	4.42723
10.33	4.42559
10.34	4.43085
10.35	4.43644
10.36	4.42361
10.37	4.43249
10.38	4.43348
10.39	4.42592
10.4	4.4292
10.41	4.4292
10.42	4.4144
10.43	4.43348
10.44	4.42361
10.45	4.43184
10.46	4.41144
10.47	4.41506
10.48	4.41572
10.49	4.42986
10.5	4.42526
10.51	4.41802
10.52	4.41309
10.53	4.41901
10.54	4.42855
10.55	4.41638
10.56	4.41111
10.57	4.40322
10.58	4.41407
10.59	4.41341
10.6	4.39927
10.61	4.39335
10.62	4.39598
10.63	4.40782
10.64	4.40815
10.65	4.40585
10.66	4.41045
10.67	4.41407
10.68	4.40026
10.69	4.41605
10.7	4.40815
10.71	4.40651
10.72	4.40387
10.73	4.41473
10.74	4.41144
10.75	4.39466
10.76	4.41605
10.77	4.40157
10.78	4.40716
10.79	4.40486
10.8	4.40881
10.81	4.40881
10.82	4.38907
10.83	4.3894
10.84	4.39466
10.85	4.38677
10.86	4.39795
10.87	4.4019
10.88	4.39894
10.89	4.40157
10.9	4.40157
10.91	4.39302
10.92	4.38874
10.93	4.39565
10.94	4.39236
10.95	4.40552
10.96	4.39269
10.97	4.39302
10.98	4.3871
10.99	4.37361
11	4.37361
11.01	4.39006
11.02	4.37591
11.03	4.38414
11.04	4.38874
11.05	4.38348
11.06	4.38381
11.07	4.38381
11.08	4.3894
11.09	4.37822
11.1	4.39203
11.11	4.36868
11.12	4.37098
11.13	4.39269
11.14	4.36999
11.15	4.3644
11.16	4.37065
11.17	4.3746
11.18	4.36078
11.19	4.3792
11.2	4.36901
11.21	4.37328
11.22	4.37756
11.23	4.3848
11.24	4.36966
11.25	4.37953
11.26	4.37756
11.27	4.3644
11.28	4.36835
11.29	4.36637
11.3	4.37197
11.31	4.38743
11.32	4.38118
11.33	4.3746
11.34	4.37164
11.35	4.37065
11.36	4.36276
11.37	4.36966
11.38	4.36868
11.39	4.3621
11.4	4.35091
11.41	4.36144
11.42	4.35683
11.43	4.37394
11.44	4.3621
11.45	4.36341
11.46	4.36078
11.47	4.36868
11.48	4.36637
11.49	4.35124
11.5	4.35486
11.51	4.35387
11.52	4.34762
11.53	4.34565
11.54	4.34927
11.55	4.35749
11.56	4.35749
11.57	4.35256
11.58	4.34335
11.59	4.35223
11.6	4.35322
11.61	4.34598
11.62	4.35947
11.63	4.36637
11.64	4.36308
11.65	4.34302
11.66	4.35223
11.67	4.33907
11.68	4.35223
11.69	4.35124
11.7	4.35716
11.71	4.34729
11.72	4.34861
11.73	4.35618
11.74	4.34335
11.75	4.34664
11.76	4.34795
11.77	4.34368
11.78	4.34598
11.79	4.34631
11.8	4.35453
11.81	4.35289
11.82	4.36539
11.83	4.35256
11.84	4.33479
11.85	4.3496
11.86	4.33249
11.87	4.34499
11.88	4.33216
11.89	4.34927
11.9	4.35223
11.91	4.34006
11.92	4.33052
11.93	4.35058
11.94	4.34335
11.95	4.32821
11.96	4.32723
11.97	4.34729
11.98	4.33052
11.99	4.33216
12	4.3371
12.01	4.32723
12.02	4.33743
12.03	4.33775
12.04	4.34302
12.05	4.34269
12.06	4.34532
12.07	4.32986
12.08	4.33611
12.09	4.32821
12.1	4.32558
12.11	4.33315
12.12	4.31802
12.13	4.33414
12.14	4.34236
12.15	4.31769
12.16	4.32295
12.17	4.33743
12.18	4.33743
12.19	4.32789
12.2	4.30749
12.21	4.32229
12.22	4.31835
12.23	4.32065
12.24	4.32295
12.25	4.3144
12.26	4.32164
12.27	4.32558
12.28	4.32591
12.29	4.3246
12.3	4.31177
12.31	4.32427
12.32	4.32427
12.33	4.319
12.34	4.319
12.35	4.31506
12.36	4.31835
12.37	4.31769
12.38	4.32558
12.39	4.31571
12.4	4.30946
12.41	4.31571
12.42	4.32361
12.43	4.31703
12.44	4.3246
12.45	4.3121
12.46	4.30157
12.47	4.319
12.48	4.31407
12.49	4.3121
12.5	4.31736
12.51	4.30617
12.52	4.32098
12.53	4.31736
12.54	4.30683
12.55	4.30914
12.56	4.3065
12.57	4.29466
12.58	4.3065
12.59	4.30683
12.6	4.30782
12.61	4.31341
12.62	4.30387
12.63	4.30716
12.64	4.30223
12.65	4.31308
12.66	4.30914
12.67	4.30585
12.68	4.30124
12.69	4.30749
12.7	4.30617
12.71	4.30486
12.72	4.3065
12.73	4.30354
12.74	4.30321
12.75	4.30946
12.76	4.31144
12.77	4.30486
12.78	4.30848
12.79	4.29236
12.8	4.3121
12.81	4.29203
12.82	4.29532
12.83	4.29071
12.84	4.28874
12.85	4.294
12.86	4.30223
12.87	4.30914
12.88	4.30453
12.89	4.28677
12.9	4.29367
12.91	4.29795
12.92	4.30058
12.93	4.27986
12.94	4.27953
12.95	4.2792
12.96	4.2996
12.97	4.29302
12.98	4.28874
12.99	4.294
13	4.29302
13.01	4.29795
13.02	4.2996
13.03	4.29367
13.04	4.28545
13.05	4.29433
13.06	4.27163
13.07	4.28973
13.08	4.29663
13.09	4.29236
13.1	4.29367
13.11	4.28973
13.12	4.29071
13.13	4.30058
13.14	4.2894
13.15	4.29236
13.16	4.29104
13.17	4.29663
13.18	4.28808
13.19	4.27986
13.2	4.28019
13.21	4.28446
13.22	4.28315
13.23	4.29499
13.24	4.27854
13.25	4.28216
13.26	4.28907
13.27	4.27032
13.28	4.26966
13.29	4.28775
13.3	4.28841
13.31	4.28973
13.32	4.29335
13.33	4.29598
13.34	4.28545
13.35	4.28677
13.36	4.28249
13.37	4.28841
13.38	4.27459
13.39	4.28249
13.4	4.28709
13.41	4.27624
13.42	4.26769
13.43	4.26867
13.44	4.2713
13.45	4.27262
13.46	4.26144
13.47	4.26769
13.48	4.27427
13.49	4.26834
13.5	4.28611
13.51	4.26341
13.52	4.27229
13.53	4.27032
13.54	4.27295
13.55	4.27032
13.56	4.27361
13.57	4.28216
13.58	4.27229
13.59	4.26374
13.6	4.26341
13.61	4.2792
13.62	4.28381
13.63	4.27098
13.64	4.27361
13.65	4.2667
13.66	4.25946
13.67	4.25683
13.68	4.26769
13.69	4.26571
13.7	4.26571
13.71	4.27032
13.72	4.2815
13.73	4.26769
13.74	4.27065
13.75	4.27887
