"BIO-KINE ASCII FILE"
"_COMMENT"	"MOS-500 Spectrometer"
"_COMMENT"	"Kinetics measurement"
"_COMMENT"	"Y Unit : Volt,  X Unit : s"
"_COMMENT"	"Excitation wavelength : 380 nm"
"_COMMENT"	"Fentes bandwidth =  1 nm"
"_COMMENT"	"HV= 750V"
"_COMMENT"	"Timebase  1 =  .01 s   3001 pts"
"_SFM"	"SFM-400 /S  Advanced mode"
"_SFM"	"Ratio : S1: 2.5, S2: 0, S3: 0, S4: 1"
"_SFM"	"Content : S1: , S2: , S3: , S4:"
"_SFM"	"Concentration : S1: , S2: , S3: , S4:"
"_SFM"	"Total volume : 209 µl  Flow : 3.5 mL/s"
"_SFM"	"Acquisition start :  10 ms before stop"
"_SFM"	"cuve=FC-15, s1=10 ml , s2=10 ml , s3=10 ml , s4=1.9 ml"
"_UNITX"	"s"
"_UNITY"	"Volt"
"_DELTAX"	0
"_DATA"
1e-300	7.11119
0.01	7.61844
0.02	7.77239
0.03	7.76318
0.04	7.7895
0.05	7.76976
0.06	7.77305
0.07	7.77272
0.08	7.79015
0.09	7.78292
0.1	7.78687
0.11	7.80792
0.12	7.79509
0.13	7.78687
0.14	7.79772
0.15	7.79969
0.16	7.78851
0.17	7.79279
0.18	7.79443
0.19	7.77765
0.2	7.77502
0.21	7.77469
0.22	7.79312
0.23	7.75232
0.24	7.76285
0.25	7.76581
0.26	7.74575
0.27	7.74476
0.28	7.74476
0.29	7.74246
0.3	7.75858
0.31	7.7464
0.32	7.73686
0.33	7.7214
0.34	7.72305
0.35	7.72996
0.36	7.71417
0.37	7.69871
0.38	7.71186
0.39	7.69542
0.4	7.6964
0.41	7.69213
0.42	7.68423
0.43	7.69673
0.44	7.68653
0.45	7.67107
0.46	7.66844
0.47	7.66515
0.48	7.64969
0.49	7.66219
0.5	7.64607
0.51	7.6589
0.52	7.64443
0.53	7.63916
0.54	7.62206
0.55	7.64344
0.56	7.62041
0.57	7.62601
0.58	7.60429
0.59	7.58982
0.6	7.59607
0.61	7.56877
0.62	7.59804
0.63	7.59673
0.64	7.58686
0.65	7.57864
0.66	7.56679
0.67	7.56614
0.68	7.55594
0.69	7.5589
0.7	7.55627
0.71	7.54245
0.72	7.53094
0.73	7.53061
0.74	7.52469
0.75	7.53225
0.76	7.50363
0.77	7.50824
0.78	7.50199
0.79	7.48817
0.8	7.5066
0.81	7.50035
0.82	7.48521
0.83	7.46975
0.84	7.46909
0.85	7.47995
0.86	7.45199
0.87	7.44179
0.88	7.42304
0.89	7.43357
0.9	7.42238
0.91	7.41087
0.92	7.42436
0.93	7.43751
0.94	7.40462
0.95	7.38817
0.96	7.40659
0.97	7.39409
0.98	7.39343
0.99	7.37304
1	7.36185
1.01	7.36613
1.02	7.3681
1.03	7.35133
1.04	7.34409
1.05	7.34475
1.06	7.34541
1.07	7.33784
1.08	7.30889
1.09	7.33159
1.1	7.33192
1.11	7.32205
1.12	7.29014
1.13	7.30363
1.14	7.30396
1.15	7.27764
1.16	7.27369
1.17	7.28027
1.18	7.28192
1.19	7.27205
1.2	7.27567
1.21	7.2681
1.22	7.26613
1.23	7.25922
1.24	7.22271
1.25	7.22336
1.26	7.23685
1.27	7.22994
1.28	7.21514
1.29	7.21185
1.3	7.20494
1.31	7.21119
1.32	7.19902
1.33	7.18027
1.34	7.17172
1.35	7.18817
1.36	7.17994
1.37	7.16547
1.38	7.16317
1.39	7.14935
1.4	7.14968
1.41	7.14836
1.42	7.13619
1.43	7.11941
1.44	7.13323
1.45	7.13323
1.46	7.11711
1.47	7.08783
1.48	7.10001
1.49	7.10889
1.5	7.09112
1.51	7.08422
1.52	7.07698
1.53	7.07632
1.54	7.07073
1.55	7.05625
1.56	7.04803
1.57	7.05593
1.58	7.05165
1.59	7.03454
1.6	7.03652
1.61	7.03093
1.62	7.03093
1.63	7.01349
1.64	7.02336
1.65	7.00823
1.66	7.00823
1.67	7.00066
1.68	7.00099
1.69	7.00033
1.7	6.99441
1.71	6.99606
1.72	6.98849
1.73	6.99342
1.74	6.97467
1.75	6.9648
1.76	6.95954
1.77	6.95855
1.78	6.97599
1.79	6.94638
1.8	6.91744
1.81	6.93224
1.82	6.94671
1.83	6.92599
1.84	6.92467
1.85	6.92171
1.86	6.91678
1.87	6.91349
1.88	6.89901
1.89	6.89079
1.9	6.89868
1.91	6.87961
1.92	6.88289
1.93	6.87829
1.94	6.86283
1.95	6.86316
1.96	6.86053
1.97	6.84572
1.98	6.83881
1.99	6.82763
2	6.84276
2.01	6.82697
2.02	6.81677
2.03	6.81052
2.04	6.80066
2.05	6.79901
2.06	6.80954
2.07	6.79046
2.08	6.78519
2.09	6.78059
2.1	6.77993
2.11	6.76447
2.12	6.76513
2.13	6.75954
2.14	6.74046
2.15	6.7375
2.16	6.73125
2.17	6.7296
2.18	6.725
2.19	6.71644
2.2	6.71546
2.21	6.69835
2.22	6.71611
2.23	6.70098
2.24	6.69276
2.25	6.68256
2.26	6.68092
2.27	6.65328
2.28	6.65756
2.29	6.65197
2.3	6.63848
2.31	6.64374
2.32	6.64506
2.33	6.63256
2.34	6.63684
2.35	6.62532
2.36	6.62302
2.37	6.61809
2.38	6.61118
2.39	6.61315
2.4	6.59341
2.41	6.58979
2.42	6.59045
2.43	6.58782
2.44	6.56479
2.45	6.56775
2.46	6.56414
2.47	6.56183
2.48	6.54703
2.49	6.54506
2.5	6.54374
2.51	6.56019
2.52	6.54571
2.53	6.53881
2.54	6.52565
2.55	6.52861
2.56	6.53091
2.57	6.53124
2.58	6.52828
2.59	6.50756
2.6	6.50657
2.61	6.5092
2.62	6.49933
2.63	6.49045
2.64	6.49144
2.65	6.47992
2.66	6.47861
2.67	6.47203
2.68	6.45854
2.69	6.4592
2.7	6.46446
2.71	6.45821
2.72	6.44308
2.73	6.43387
2.74	6.43782
2.75	6.43782
2.76	6.43157
2.77	6.41479
2.78	6.399
2.79	6.40328
2.8	6.39768
2.81	6.38814
2.82	6.37696
2.83	6.35624
2.84	6.37762
2.85	6.36512
2.86	6.35656
2.87	6.35459
2.88	6.36545
2.89	6.35525
2.9	6.32597
2.91	6.33387
2.92	6.34275
2.93	6.32466
2.94	6.32696
2.95	6.32137
2.96	6.30722
2.97	6.29077
2.98	6.29077
2.99	6.30689
3	6.29373
3.01	6.2809
3.02	6.27597
3.03	6.26709
3.04	6.27268
3.05	6.27827
3.06	6.26775
3.07	6.23814
3.08	6.23814
3.09	6.24965
3.1	6.23814
3.11	6.23222
3.12	6.22728
3.13	6.2184
3.14	6.22761
3.15	6.21478
3.16	6.21478
3.17	6.21149
3.18	6.20294
3.19	6.18945
3.2	6.20722
3.21	6.19867
3.22	6.17202
3.23	6.1684
3.24	6.16906
3.25	6.17366
3.26	6.17268
3.27	6.16281
3.28	6.17695
3.29	6.15623
3.3	6.14834
3.31	6.16018
3.32	6.13781
3.33	6.1434
3.34	6.12333
3.35	6.13518
3.36	6.11676
3.37	6.11873
3.38	6.1286
3.39	6.12399
3.4	6.11347
3.41	6.09603
3.42	6.09044
3.43	6.08518
3.44	6.09307
3.45	6.08156
3.46	6.07136
3.47	6.08024
3.48	6.07465
3.49	6.06083
3.5	6.05064
3.51	6.04899
3.52	6.07399
3.53	6.0559
3.54	6.04866
3.55	6.04899
3.56	6.04471
3.57	6.02465
3.58	6.02169
3.59	6.02827
3.6	6.0309
3.61	6.01609
3.62	6.00261
3.63	6.00195
3.64	5.98682
3.65	5.99471
3.66	6.00886
3.67	6.01412
3.68	5.98353
3.69	5.97497
3.7	5.97103
3.71	5.98057
3.72	5.94537
3.73	5.95984
3.74	5.95491
3.75	5.95063
3.76	5.948
3.77	5.94142
3.78	5.94241
3.79	5.93912
3.8	5.92892
3.81	5.9253
3.82	5.92629
3.83	5.92168
3.84	5.90195
3.85	5.89339
3.86	5.89175
3.87	5.90096
3.88	5.90458
3.89	5.90293
3.9	5.90392
3.91	5.87497
3.92	5.86017
3.93	5.87925
3.94	5.86609
3.95	5.86477
3.96	5.86938
3.97	5.86214
3.98	5.84208
3.99	5.84997
4	5.8401
4.01	5.8401
4.02	5.83385
4.03	5.83352
4.04	5.81773
4.05	5.8174
4.06	5.83254
4.07	5.8105
4.08	5.81905
4.09	5.81642
4.1	5.82398
4.11	5.79767
4.12	5.78319
4.13	5.78846
4.14	5.80096
4.15	5.78221
4.16	5.77135
4.17	5.75885
4.18	5.76313
4.19	5.76576
4.2	5.75918
4.21	5.74865
4.22	5.76313
4.23	5.75622
4.24	5.75523
4.25	5.74306
4.26	5.73549
4.27	5.74734
4.28	5.73352
4.29	5.72859
4.3	5.7322
4.31	5.70984
4.32	5.70293
4.33	5.71839
4.34	5.71674
4.35	5.70589
4.36	5.68582
4.37	5.69898
4.38	5.6901
4.39	5.69339
4.4	5.68451
4.41	5.67793
4.42	5.67826
4.43	5.68122
4.44	5.66674
4.45	5.66444
4.46	5.67201
4.47	5.64997
4.48	5.65358
4.49	5.63812
4.5	5.64832
4.51	5.64635
4.52	5.64174
4.53	5.64075
4.54	5.63549
4.55	5.63747
4.56	5.62266
4.57	5.61312
4.58	5.60556
4.59	5.62266
4.6	5.6049
4.61	5.59602
4.62	5.6026
4.63	5.59898
4.64	5.59141
4.65	5.59602
4.66	5.57825
4.67	5.56575
4.68	5.57825
4.69	5.58352
4.7	5.56674
4.71	5.57759
4.72	5.56773
4.73	5.55819
4.74	5.57003
4.75	5.55786
4.76	5.54766
4.77	5.53976
4.78	5.53911
4.79	5.54569
4.8	5.53023
4.81	5.53648
4.82	5.53351
4.83	5.51772
4.84	5.52496
4.85	5.51838
4.86	5.52299
4.87	5.50128
4.88	5.51279
4.89	5.50062
4.9	5.49371
4.91	5.50161
4.92	5.49733
4.93	5.48779
4.94	5.49404
4.95	5.47891
4.96	5.47989
4.97	5.472
4.98	5.45884
4.99	5.46378
5	5.47134
5.01	5.45851
5.02	5.45292
5.03	5.45884
5.04	5.45654
5.05	5.45128
5.06	5.44272
5.07	5.45654
5.08	5.42989
5.09	5.44075
5.1	5.43812
5.11	5.40851
5.12	5.4322
5.13	5.4266
5.14	5.41838
5.15	5.42956
5.16	5.42858
5.17	5.40391
5.18	5.39996
5.19	5.40292
5.2	5.40621
5.21	5.41213
5.22	5.39996
5.23	5.39437
5.24	5.39864
5.25	5.38022
5.26	5.38088
5.27	5.36608
5.28	5.38252
5.29	5.38976
5.3	5.37594
5.31	5.37923
5.32	5.36838
5.33	5.36575
5.34	5.36279
5.35	5.34469
5.36	5.35358
5.37	5.35456
5.38	5.3539
5.39	5.34206
5.4	5.33154
5.41	5.3243
5.42	5.3164
5.43	5.33219
5.44	5.32265
5.45	5.32002
5.46	5.32463
5.47	5.31838
5.48	5.31213
5.49	5.3164
5.5	5.30884
5.51	5.30719
5.52	5.30489
5.53	5.2891
5.54	5.28482
5.55	5.27495
5.56	5.28482
5.57	5.26903
5.58	5.27824
5.59	5.28088
5.6	5.27002
5.61	5.25982
5.62	5.27989
5.63	5.26509
5.64	5.26443
5.65	5.2687
5.66	5.26015
5.67	5.28186
5.68	5.2664
5.69	5.26245
5.7	5.2493
5.71	5.24732
5.72	5.24897
5.73	5.2437
5.74	5.24864
5.75	5.2368
5.76	5.22824
5.77	5.2289
5.78	5.2266
5.79	5.22594
5.8	5.21278
5.81	5.21179
5.82	5.22726
5.83	5.19304
5.84	5.20916
5.85	5.22364
5.86	5.21443
5.87	5.19469
5.88	5.19502
5.89	5.19831
5.9	5.18416
5.91	5.19206
5.92	5.19568
5.93	5.17429
5.94	5.17035
5.95	5.18646
5.96	5.18153
5.97	5.17462
5.98	5.14633
5.99	5.1516
6	5.15982
6.01	5.1641
6.02	5.15225
6.03	5.14008
6.04	5.13942
6.05	5.14567
6.06	5.14074
6.07	5.14666
6.08	5.14567
6.09	5.12199
6.1	5.14238
6.11	5.14995
6.12	5.14074
6.13	5.13581
6.14	5.1187
6.15	5.12594
6.16	5.13021
6.17	5.10817
6.18	5.11048
6.19	5.09896
6.2	5.11179
6.21	5.10784
6.22	5.11311
6.23	5.09929
6.24	5.07857
6.25	5.09205
6.26	5.0914
6.27	5.08219
6.28	5.08876
6.29	5.08613
6.3	5.08054
6.31	5.07626
6.32	5.0733
6.33	5.06508
6.34	5.0789
6.35	5.07199
6.36	5.06574
6.37	5.05718
6.38	5.06311
6.39	5.04732
6.4	5.07034
6.41	5.06212
6.42	5.05751
6.43	5.06311
6.44	5.05686
6.45	5.04929
6.46	5.04041
6.47	5.04501
6.48	5.05061
6.49	5.03975
6.5	5.01705
6.51	5.02791
6.52	5.0335
6.53	5.03975
6.54	5.02988
6.55	5.02955
6.56	5.03383
6.57	5.01968
6.58	5.03153
6.59	5.03218
6.6	5.04205
6.61	5.01475
6.62	5.01574
6.63	5.01968
6.64	5.02264
6.65	5.00883
6.66	5.00718
6.67	5.01639
6.68	5.00258
6.69	4.99896
6.7	5.0085
6.71	5.01278
6.72	4.99172
6.73	4.99402
6.74	4.98514
6.75	4.9858
6.76	4.9812
6.77	4.98449
6.78	4.96606
6.79	4.96047
6.8	4.97133
6.81	4.96277
6.82	4.96705
6.83	4.96113
6.84	4.94731
6.85	4.95981
6.86	4.95291
6.87	4.94698
6.88	4.95225
6.89	4.94731
6.9	4.93514
6.91	4.95258
6.92	4.95258
6.93	4.95389
6.94	4.94534
6.95	4.94896
6.96	4.94172
6.97	4.92429
6.98	4.9335
6.99	4.93383
7	4.90521
7.01	4.91968
7.02	4.92034
7.03	4.91672
7.04	4.89402
7.05	4.8983
7.06	4.90915
7.07	4.92067
7.08	4.90981
7.09	4.89632
7.1	4.89106
7.11	4.89764
7.12	4.90323
7.13	4.9006
7.14	4.88876
7.15	4.89271
7.16	4.88909
7.17	4.88251
7.18	4.87428
7.19	4.87922
7.2	4.87659
7.21	4.88086
7.22	4.86836
7.23	4.86277
7.24	4.86738
7.25	4.88251
7.26	4.87823
7.27	4.86145
7.28	4.87132
7.29	4.85718
7.3	4.85224
7.31	4.85948
7.32	4.86738
7.33	4.85455
7.34	4.85685
7.35	4.85685
7.36	4.83349
7.37	4.85192
7.38	4.83645
7.39	4.84665
7.4	4.84369
7.41	4.83053
7.42	4.82691
7.43	4.84928
7.44	4.83744
7.45	4.83218
7.46	4.8358
7.47	4.83711
7.48	4.84731
7.49	4.83547
7.5	4.82823
7.51	4.81902
7.52	4.81112
7.53	4.82461
7.54	4.83185
7.55	4.8256
7.56	4.83481
7.57	4.80816
7.58	4.81145
7.59	4.81441
7.6	4.81014
7.61	4.8029
7.62	4.79895
7.63	4.79764
7.64	4.79994
7.65	4.80553
7.66	4.80158
7.67	4.80191
7.68	4.77494
7.69	4.78579
7.7	4.78579
7.71	4.8029
7.72	4.77757
7.73	4.78612
7.74	4.77823
7.75	4.77823
7.76	4.78283
7.77	4.78579
7.78	4.77099
7.79	4.76343
7.8	4.78579
7.81	4.79073
7.82	4.78283
7.83	4.77329
7.84	4.77593
7.85	4.7756
7.86	4.76507
7.87	4.76573
7.88	4.7654
7.89	4.75849
7.9	4.75948
7.91	4.74599
7.92	4.75257
7.93	4.7575
7.94	4.75389
7.95	4.75915
7.96	4.75849
7.97	4.74073
7.98	4.7381
7.99	4.74599
8	4.73974
8.01	4.72494
8.02	4.74073
8.03	4.73842
8.04	4.7427
8.05	4.73941
8.06	4.74599
8.07	4.74961
8.08	4.73744
8.09	4.74468
8.1	4.73415
8.11	4.72263
8.12	4.72165
8.13	4.70948
8.14	4.71441
8.15	4.70388
8.16	4.70619
8.17	4.71935
8.18	4.72263
8.19	4.72527
8.2	4.70586
8.21	4.70619
8.22	4.71079
8.23	4.72658
8.24	4.72033
8.25	4.70652
8.26	4.69303
8.27	4.69763
8.28	4.70849
8.29	4.70191
8.3	4.69731
8.31	4.68875
8.32	4.69961
8.33	4.71112
8.34	4.69599
8.35	4.69961
8.36	4.68711
8.37	4.67165
8.38	4.67954
8.39	4.67625
8.4	4.68152
8.41	4.68415
8.42	4.68645
8.43	4.67362
8.44	4.66507
8.45	4.66408
8.46	4.67691
8.47	4.67461
8.48	4.67263
8.49	4.67033
8.5	4.67461
8.51	4.66901
8.52	4.66375
8.53	4.66671
8.54	4.65783
8.55	4.66309
8.56	4.6723
8.57	4.66671
8.58	4.66046
8.59	4.6654
8.6	4.65619
8.61	4.64007
8.62	4.64401
8.63	4.65487
8.64	4.64105
8.65	4.65191
8.66	4.64961
8.67	4.65158
8.68	4.63941
8.69	4.63283
8.7	4.63447
8.71	4.63711
8.72	4.63151
8.73	4.62757
8.74	4.63743
8.75	4.64237
8.76	4.63908
8.77	4.65059
8.78	4.64138
8.79	4.62822
8.8	4.62954
8.81	4.61145
8.82	4.61836
8.83	4.64369
8.84	4.6302
8.85	4.62
8.86	4.62197
8.87	4.62954
8.88	4.63513
8.89	4.62197
8.9	4.61539
8.91	4.6075
8.92	4.61605
8.93	4.6223
8.94	4.62132
8.95	4.61474
8.96	4.5973
8.97	4.61539
8.98	4.60882
8.99	4.59697
9	4.6075
9.01	4.61507
9.02	4.60553
9.03	4.59401
9.04	4.61342
9.05	4.61145
9.06	4.61507
9.07	4.62066
9.08	4.61441
9.09	4.5973
9.1	4.6052
9.11	4.60289
9.12	4.59697
9.13	4.59467
9.14	4.59993
9.15	4.59171
9.16	4.60421
9.17	4.59303
9.18	4.59072
9.19	4.58381
9.2	4.58579
9.21	4.59007
9.22	4.58349
9.23	4.58184
9.24	4.57691
9.25	4.59171
9.26	4.59105
9.27	4.57526
9.28	4.57395
9.29	4.5848
9.3	4.58546
9.31	4.5825
9.32	4.58381
9.33	4.57164
9.34	4.57987
9.35	4.56704
9.36	4.56572
9.37	4.58184
9.38	4.5723
9.39	4.56112
9.4	4.56177
9.41	4.57559
9.42	4.56408
9.43	4.56704
9.44	4.56342
9.45	4.56079
9.46	4.55717
9.47	4.55355
9.48	4.55651
9.49	4.57625
9.5	4.57493
9.51	4.56671
9.52	4.56243
9.53	4.56079
9.54	4.56375
9.55	4.55059
9.56	4.55125
9.57	4.56802
9.58	4.56605
9.59	4.56342
9.6	4.54631
9.61	4.54171
9.62	4.53414
9.63	4.54335
9.64	4.54171
9.65	4.53513
9.66	4.54006
9.67	4.54401
9.68	4.53644
9.69	4.54631
9.7	4.54697
9.71	4.54039
9.72	4.53743
9.73	4.52921
9.74	4.52526
9.75	4.52756
9.76	4.52493
9.77	4.52789
9.78	4.53842
9.79	4.52625
9.8	4.53085
9.81	4.52065
9.82	4.51243
9.83	4.51638
9.84	4.51243
9.85	4.50125
9.86	4.51144
9.87	4.5144
9.88	4.5075
9.89	4.50684
9.9	4.51309
9.91	4.51144
9.92	4.5075
9.93	4.50552
9.94	4.50289
9.95	4.48908
9.96	4.50914
9.97	4.5121
9.98	4.50289
9.99	4.50552
10	4.49796
10.01	4.48809
10.02	4.49072
10.03	4.495
10.04	4.495
10.05	4.51243
10.06	4.49368
10.07	4.49434
10.08	4.48809
10.09	4.49401
10.1	4.495
10.11	4.48677
10.12	4.47329
10.13	4.46967
10.14	4.48677
10.15	4.49763
10.16	4.5098
10.17	4.49236
10.18	4.50256
10.19	4.49796
10.2	4.48644
10.21	4.4848
10.22	4.47559
10.23	4.49138
10.24	4.49236
10.25	4.48842
10.26	4.47657
10.27	4.48381
10.28	4.48085
10.29	4.48315
10.3	4.48908
10.31	4.47888
10.32	4.47197
10.33	4.4825
10.34	4.47625
10.35	4.46638
10.36	4.48447
10.37	4.47855
10.38	4.47361
10.39	4.47723
10.4	4.48282
10.41	4.47197
10.42	4.46539
10.43	4.4769
10.44	4.48085
10.45	4.46638
10.46	4.4769
10.47	4.4723
10.48	4.46736
10.49	4.4746
10.5	4.47197
10.51	4.47263
10.52	4.47329
10.53	4.47296
10.54	4.46506
10.55	4.45914
10.56	4.46342
10.57	4.46309
10.58	4.46243
10.59	4.46276
10.6	4.45881
10.61	4.45651
10.62	4.45684
10.63	4.4644
10.64	4.45651
10.65	4.44763
10.66	4.45486
10.67	4.45421
10.68	4.45124
10.69	4.45914
10.7	4.45717
10.71	4.44467
10.72	4.45848
10.73	4.45256
10.74	4.44072
10.75	4.45388
10.76	4.44697
10.77	4.45618
10.78	4.44894
10.79	4.44631
10.8	4.44796
10.81	4.44368
10.82	4.44664
10.83	4.43907
10.84	4.43414
10.85	4.44598
10.86	4.44532
10.87	4.43447
10.88	4.44236
10.89	4.43085
10.9	4.43315
10.91	4.45026
10.92	4.45289
10.93	4.43217
10.94	4.43677
10.95	4.43249
10.96	4.43611
10.97	4.43184
10.98	4.43611
10.99	4.4144
11	4.42493
11.01	4.42427
11.02	4.43348
11.03	4.42032
11.04	4.42164
11.05	4.42427
11.06	4.41999
11.07	4.42855
11.08	4.42427
11.09	4.41407
11.1	4.41868
11.11	4.41243
11.12	4.41539
11.13	4.41177
11.14	4.41605
11.15	4.42361
11.16	4.42624
11.17	4.42361
11.18	4.41539
11.19	4.41013
11.2	4.40124
11.21	4.41605
11.22	4.41473
11.23	4.40486
11.24	4.40749
11.25	4.40453
11.26	4.40585
11.27	4.4167
11.28	4.40914
11.29	4.40289
11.3	4.40881
11.31	4.41341
11.32	4.41013
11.33	4.4098
11.34	4.40881
11.35	4.40157
11.36	4.41078
11.37	4.40486
11.38	4.37855
11.39	4.39927
11.4	4.41013
11.41	4.43184
11.42	4.4121
11.43	4.41769
11.44	4.41835
11.45	4.41144
11.46	4.40651
11.47	4.39532
11.48	4.39006
11.49	4.40091
11.5	4.40453
11.51	4.40716
11.52	4.40223
11.53	4.41769
11.54	4.41276
11.55	4.39335
11.56	4.39203
11.57	4.39236
11.58	4.39039
11.59	4.40618
11.6	4.40585
11.61	4.42098
11.62	4.40815
11.63	4.40651
11.64	4.40651
11.65	4.41111
11.66	4.40289
11.67	4.39466
11.68	4.39434
11.69	4.40453
11.7	4.41999
11.71	4.39335
11.72	4.39072
11.73	4.39006
11.74	4.37855
11.75	4.3973
11.76	4.39532
11.77	4.39302
11.78	4.3917
11.79	4.38019
11.8	4.39466
11.81	4.38578
11.82	4.38183
11.83	4.37953
11.84	4.38841
11.85	4.3792
11.86	4.37526
11.87	4.37887
11.88	4.38151
11.89	4.37098
11.9	4.37558
11.91	4.36966
11.92	4.38414
11.93	4.37855
11.94	4.37197
11.95	4.36572
11.96	4.35453
11.97	4.37558
11.98	4.38019
11.99	4.3542
12	4.36933
12.01	4.36933
12.02	4.37558
12.03	4.37131
12.04	4.36243
12.05	4.37657
12.06	4.36177
12.07	4.36407
12.08	4.37065
12.09	4.34762
12.1	4.35782
12.11	4.35322
12.12	4.36572
12.13	4.36966
12.14	4.38216
12.15	4.37361
12.16	4.36144
12.17	4.36637
12.18	4.37164
12.19	4.36539
12.2	4.36703
12.21	4.36736
12.22	4.36473
12.23	4.36276
12.24	4.35552
12.25	4.35947
12.26	4.36111
12.27	4.35881
12.28	4.36012
12.29	4.35387
12.3	4.36341
12.31	4.36341
12.32	4.35519
12.33	4.36177
12.34	4.36341
12.35	4.36308
12.36	4.34565
12.37	4.36111
12.38	4.35058
12.39	4.35618
12.4	4.36769
12.41	4.35651
12.42	4.36407
12.43	4.37295
12.44	4.36506
12.45	4.3542
12.46	4.34927
12.47	4.35223
12.48	4.35881
12.49	4.35025
12.5	4.35058
12.51	4.36111
12.52	4.35618
12.53	4.35914
12.54	4.35749
12.55	4.33907
12.56	4.34269
12.57	4.34499
12.58	4.35124
12.59	4.34664
12.6	4.34137
12.61	4.34203
12.62	4.33545
12.63	4.3394
12.64	4.34006
12.65	4.33381
12.66	4.34894
12.67	4.34499
12.68	4.35453
12.69	4.34368
12.7	4.34894
12.71	4.34927
12.72	4.34039
12.73	4.35387
12.74	4.36276
12.75	4.35683
12.76	4.35058
12.77	4.35124
12.78	4.34269
12.79	4.34795
12.8	4.3496
12.81	4.34433
12.82	4.344
12.83	4.33249
12.84	4.35091
12.85	4.34828
12.86	4.33216
12.87	4.33315
12.88	4.33775
12.89	4.35025
12.9	4.33743
12.91	4.3417
12.92	4.33775
12.93	4.3269
12.94	4.35025
12.95	4.33775
12.96	4.32887
12.97	4.34433
12.98	4.32558
12.99	4.33052
13	4.33677
13.01	4.33315
13.02	4.33381
13.03	4.33019
13.04	4.34598
13.05	4.33578
13.06	4.33611
13.07	4.3292
13.08	4.32164
13.09	4.32854
13.1	4.34039
13.11	4.32854
13.12	4.33841
13.13	4.33644
13.14	4.33381
13.15	4.32262
13.16	4.3269
13.17	4.32821
13.18	4.32887
13.19	4.32723
13.2	4.32756
13.21	4.33644
13.22	4.34072
13.23	4.34335
13.24	4.34532
13.25	4.32065
13.26	4.3315
13.27	4.33644
13.28	4.33644
13.29	4.34104
13.3	4.34269
13.31	4.34368
13.32	4.33118
13.33	4.32164
13.34	4.32394
13.35	4.32789
13.36	4.32427
13.37	4.33183
13.38	4.32986
13.39	4.32624
13.4	4.32756
13.41	4.33118
13.42	4.32986
13.43	4.32887
13.44	4.32756
13.45	4.32756
13.46	4.31078
13.47	4.33183
13.48	4.31933
13.49	4.319
13.5	4.31506
13.51	4.32196
13.52	4.31539
13.53	4.32525
13.54	4.32394
13.55	4.3167
13.56	4.30881
13.57	4.31802
13.58	4.31374
13.59	4.3167
13.6	4.3292
13.61	4.32427
13.62	4.31374
13.63	4.30025
13.64	4.30585
13.65	4.2917
13.66	4.30453
13.67	4.30288
13.68	4.31012
13.69	4.3019
13.7	4.30848
13.71	4.29236
13.72	4.31012
13.73	4.30519
