"BIO-KINE ASCII FILE"
"_COMMENT"	"MOS-500 Spectrometer"
"_COMMENT"	"Kinetics measurement"
"_COMMENT"	"Y Unit : Volt,  X Unit : s"
"_COMMENT"	"Excitation wavelength : 380 nm"
"_COMMENT"	"Fentes bandwidth =  1 nm"
"_COMMENT"	"HV= 1000V"
"_COMMENT"	"Timebase  1 =  .01 s   5001 pts"
"_SFM"	"SFM-400 /S  Advanced mode"
"_SFM"	"Ratio : S1: 2.5, S2: 0, S3: 0, S4: 1"
"_SFM"	"Content : S1: , S2: , S3: , S4:"
"_SFM"	"Concentration : S1: , S2: , S3: , S4:"
"_SFM"	"Total volume : 209 µl  Flow : 3.5 mL/s"
"_SFM"	"Acquisition start :  10 ms before stop"
"_SFM"	"cuve=FC-15, s1=10 ml , s2=10 ml , s3=10 ml , s4=1.9 ml"
"_UNITX"	"s"
"_UNITY"	"Volt"
"_DELTAX"	0
"_DATA"
1e-300	2.65678
0.01	2.6229
0.02	2.61895
0.03	2.66763
0.04	2.71139
0.05	2.73145
0.06	2.74198
0.07	2.78507
0.08	2.82981
0.09	2.78606
0.1	2.7831
0.11	2.8002
0.12	2.81139
0.13	2.85975
0.14	2.8479
0.15	2.82356
0.16	2.82652
0.17	2.81731
0.18	2.85054
0.19	2.84823
0.2	2.85711
0.21	2.84198
0.22	2.85646
0.23	2.86238
0.24	2.83935
0.25	2.84231
0.26	2.83968
0.27	2.84034
0.28	2.85909
0.29	2.82356
0.3	2.82685
0.31	2.84593
0.32	2.86238
0.33	2.866
0.34	2.84856
0.35	2.85876
0.36	2.87981
0.37	2.88804
0.38	2.84823
0.39	2.8433
0.4	2.8535
0.41	2.84396
0.42	2.84067
0.43	2.85218
0.44	2.86336
0.45	2.84396
0.46	2.83606
0.47	2.84527
0.48	2.89659
0.49	2.8706
0.5	2.84461
0.51	2.84659
0.52	2.83277
0.53	2.83672
0.54	2.85547
0.55	2.85054
0.56	2.86731
0.57	2.86336
0.58	2.85909
0.59	2.87981
0.6	2.88968
0.61	2.88047
0.62	2.84264
0.63	2.84527
0.64	2.83672
0.65	2.83672
0.66	2.8331
0.67	2.84461
0.68	2.86929
0.69	2.83343
0.7	2.82817
0.71	2.85711
0.72	2.86764
0.73	2.84231
0.74	2.83836
0.75	2.82192
0.76	2.81073
0.77	2.82257
0.78	2.83409
0.79	2.83475
0.8	2.84001
0.81	2.86304
0.82	2.84198
0.83	2.84527
0.84	2.82817
0.85	2.84494
0.86	2.82356
0.87	2.8785
0.88	2.86106
0.89	2.83639
0.9	2.85086
0.91	2.84889
0.92	2.83244
0.93	2.8206
0.94	2.84396
0.95	2.85514
0.96	2.86336
0.97	2.80613
0.98	2.85284
0.99	2.83738
1	2.85777
1.01	2.84823
1.02	2.86468
1.03	2.84297
1.04	2.8433
1.05	2.82619
1.06	2.83935
1.07	2.84297
1.08	2.86501
1.09	2.84231
1.1	2.84034
1.11	2.84297
1.12	2.8308
1.13	2.83836
1.14	2.83935
1.15	2.841
1.16	2.86896
1.17	2.84725
1.18	2.84922
1.19	2.84692
1.2	2.83178
1.21	2.84429
1.22	2.81106
1.23	2.83573
1.24	2.81961
1.25	2.84396
1.26	2.82817
1.27	2.83639
1.28	2.84692
1.29	2.83014
1.3	2.81961
1.31	2.82027
1.32	2.85514
1.33	2.85185
1.34	2.84429
1.35	2.83935
1.36	2.83178
1.37	2.81632
1.38	2.84889
1.39	2.83672
1.4	2.83113
1.41	2.82356
1.42	2.81698
1.43	2.85152
1.44	2.86073
1.45	2.8433
1.46	2.80744
1.47	2.83573
1.48	2.7956
1.49	2.7979
1.5	2.81567
1.51	2.8433
1.52	2.82718
1.53	2.81468
1.54	2.81928
1.55	2.84494
1.56	2.8706
1.57	2.83376
1.58	2.85086
1.59	2.82093
1.6	2.86633
1.61	2.85514
1.62	2.81106
1.63	2.83771
1.64	2.8354
1.65	2.86139
1.66	2.81172
1.67	2.83803
1.68	2.83178
1.69	2.83014
1.7	2.83803
1.71	2.84593
1.72	2.86731
1.73	2.81863
1.74	2.79659
1.75	2.82586
1.76	2.85382
1.77	2.85382
1.78	2.84626
1.79	2.82126
1.8	2.8285
1.81	2.81567
1.82	2.81863
1.83	2.82323
1.84	2.82784
1.85	2.82027
1.86	2.84955
1.87	2.81764
1.88	2.83968
1.89	2.83178
1.9	2.85975
1.91	2.83869
1.92	2.81961
1.93	2.83573
1.94	2.82126
1.95	2.83409
1.96	2.84165
1.97	2.81468
1.98	2.83803
1.99	2.83507
2	2.8604
2.01	2.82126
2.02	2.84659
2.03	2.86106
2.04	2.86008
2.05	2.8433
2.06	2.85514
2.07	2.82784
2.08	2.83738
2.09	2.80284
2.1	2.79527
2.11	2.79889
2.12	2.79724
2.13	2.78441
2.14	2.83277
2.15	2.81271
2.16	2.81961
2.17	2.79593
2.18	2.84198
2.19	2.80349
2.2	2.77816
2.21	2.82521
2.22	2.81928
2.23	2.82652
2.24	2.81698
2.25	2.81106
2.26	2.79231
2.27	2.83573
2.28	2.85021
2.29	2.82817
2.3	2.79395
2.31	2.80152
2.32	2.81369
2.33	2.82521
2.34	2.8058
2.35	2.81928
2.36	2.79724
2.37	2.80349
2.38	2.81402
2.39	2.82224
2.4	2.85909
2.41	2.80317
2.42	2.79757
2.43	2.83376
2.44	2.80349
2.45	2.84001
2.46	2.84988
2.47	2.82389
2.48	2.80481
2.49	2.80086
2.5	2.82553
2.51	2.82323
2.52	2.81402
2.53	2.78738
2.54	2.8002
2.55	2.79692
2.56	2.80613
2.57	2.78113
2.58	2.8104
2.59	2.83343
2.6	2.79955
2.61	2.8081
2.62	2.81896
2.63	2.83014
2.64	2.81238
2.65	2.79922
2.66	2.81303
2.67	2.81501
2.68	2.80251
2.69	2.77586
2.7	2.79955
2.71	2.81238
2.72	2.76764
2.73	2.79297
2.74	2.78902
2.75	2.83178
2.76	2.82159
2.77	2.82422
2.78	2.83376
2.79	2.84659
2.8	2.83343
2.81	2.8058
2.82	2.81238
2.83	2.82356
2.84	2.83277
2.85	2.83277
2.86	2.79231
2.87	2.80613
2.88	2.79461
2.89	2.80645
2.9	2.83771
2.91	2.80678
2.92	2.78935
2.93	2.80909
2.94	2.80777
2.95	2.82027
2.96	2.79428
2.97	2.81369
2.98	2.83113
2.99	2.82323
3	2.80448
3.01	2.7956
3.02	2.78507
3.03	2.78047
3.04	2.8058
3.05	2.81896
3.06	2.83968
3.07	2.81238
3.08	2.79593
3.09	2.83211
3.1	2.78803
3.11	2.82159
3.12	2.8104
3.13	2.80744
3.14	2.80152
3.15	2.79297
3.16	2.8229
3.17	2.83409
3.18	2.81435
3.19	2.79955
3.2	2.79692
3.21	2.79856
3.22	2.80415
3.23	2.80744
3.24	2.79626
3.25	2.80678
3.26	2.78277
3.27	2.8206
3.28	2.83178
3.29	2.79363
3.3	2.78014
3.31	2.79395
3.32	2.80744
3.33	2.7752
3.34	2.8104
3.35	2.80711
3.36	2.80843
3.37	2.81007
3.38	2.7854
3.39	2.7877
3.4	2.81698
3.41	2.79264
3.42	2.81336
3.43	2.78738
3.44	2.80876
3.45	2.80086
3.46	2.80942
3.47	2.79955
3.48	2.81599
3.49	2.83507
3.5	2.78935
3.51	2.81698
3.52	2.7933
3.53	2.80645
3.54	2.82553
3.55	2.79527
3.56	2.8081
3.57	2.79922
3.58	2.77455
3.59	2.79856
3.6	2.76402
3.61	2.79922
3.62	2.79955
3.63	2.81303
3.64	2.7854
3.65	2.8081
3.66	2.79757
3.67	2.78902
3.68	2.78014
3.69	2.81369
3.7	2.79757
3.71	2.79231
3.72	2.79297
3.73	2.79889
3.74	2.80613
3.75	2.7808
3.76	2.77619
3.77	2.80777
3.78	2.81303
3.79	2.7854
3.8	2.80086
3.81	2.81073
3.82	2.80086
3.83	2.79527
3.84	2.77323
3.85	2.78836
3.86	2.77093
3.87	2.8081
3.88	2.78178
3.89	2.7933
3.9	2.77882
3.91	2.79461
3.92	2.77652
3.93	2.80744
3.94	2.81402
3.95	2.79395
3.96	2.80284
3.97	2.81764
3.98	2.79001
3.99	2.78441
4	2.7877
4.01	2.77323
4.02	2.80185
4.03	2.79626
4.04	2.78935
4.05	2.79395
4.06	2.81797
4.07	2.77191
4.08	2.83869
4.09	2.79198
4.1	2.74889
4.11	2.78047
4.12	2.79757
4.13	2.76007
4.14	2.77487
4.15	2.78869
4.16	2.77191
4.17	2.78343
4.18	2.7831
4.19	2.75448
4.2	2.83178
4.21	2.80152
4.22	2.8104
4.23	2.76139
4.24	2.78738
4.25	2.79001
4.26	2.78869
4.27	2.83146
4.28	2.80711
4.29	2.81139
4.3	2.82323
4.31	2.81369
4.32	2.79724
4.33	2.7979
4.34	2.7877
4.35	2.78244
4.36	2.76599
4.37	2.79724
4.38	2.76862
4.39	2.75448
4.4	2.79593
4.41	2.80909
4.42	2.76007
4.43	2.78869
4.44	2.78672
4.45	2.80251
4.46	2.79428
4.47	2.76862
4.48	2.78672
4.49	2.79264
4.5	2.80152
4.51	2.77389
4.52	2.7877
4.53	2.80284
4.54	2.79889
4.55	2.80218
4.56	2.79724
4.57	2.81007
4.58	2.8002
4.59	2.79823
4.6	2.80349
4.61	2.82422
4.62	2.7808
4.63	2.77257
4.64	2.78474
4.65	2.78935
4.66	2.79692
4.67	2.78968
4.68	2.81961
4.69	2.78935
4.7	2.77751
4.71	2.79066
4.72	2.78474
4.73	2.79001
4.74	2.78474
4.75	2.77619
4.76	2.7729
4.77	2.77487
4.78	2.80777
4.79	2.80547
4.8	2.81961
4.81	2.79165
4.82	2.77718
4.83	2.77191
4.84	2.80152
4.85	2.78869
4.86	2.78014
4.87	2.76501
4.88	2.79363
4.89	2.75316
4.9	2.73145
4.91	2.76994
4.92	2.78935
4.93	2.79692
4.94	2.79165
4.95	2.7808
4.96	2.80317
4.97	2.78803
4.98	2.82718
4.99	2.78014
5	2.7831
5.01	2.79757
5.02	2.76468
5.03	2.78803
5.04	2.80645
5.05	2.79099
5.06	2.82882
5.07	2.78343
5.08	2.76106
5.09	2.75053
5.1	2.77849
5.11	2.78968
5.12	2.74922
5.13	2.79165
5.14	2.82027
5.15	2.78573
5.16	2.7933
5.17	2.76534
5.18	2.76534
5.19	2.78968
5.2	2.79527
5.21	2.79099
5.22	2.81567
5.23	2.78573
5.24	2.78211
5.25	2.76764
5.26	2.75514
5.27	2.79231
5.28	2.80053
5.29	2.77849
5.3	2.79034
5.31	2.75843
5.32	2.7604
5.33	2.78968
5.34	2.77652
5.35	2.77948
5.36	2.77751
5.37	2.79922
5.38	2.79264
5.39	2.77455
5.4	2.73737
5.41	2.78606
5.42	2.78441
5.43	2.75908
5.44	2.76566
5.45	2.75744
5.46	2.77093
5.47	2.79231
5.48	2.7558
5.49	2.80251
5.5	2.81994
5.51	2.80514
5.52	2.7877
5.53	2.75744
5.54	2.80942
5.55	2.80876
5.56	2.78836
5.57	2.7627
5.58	2.78211
5.59	2.79494
5.6	2.76435
5.61	2.78014
5.62	2.7808
5.63	2.81369
5.64	2.79165
5.65	2.80119
5.66	2.79066
5.67	2.77751
5.68	2.77882
5.69	2.73704
5.7	2.77487
5.71	2.77652
5.72	2.80547
5.73	2.80284
5.74	2.77948
5.75	2.81863
5.76	2.79494
5.77	2.77323
5.78	2.76566
5.79	2.78672
5.8	2.7831
5.81	2.79099
5.82	2.79395
5.83	2.77487
5.84	2.78705
5.85	2.78277
5.86	2.75974
5.87	2.75908
5.88	2.78441
5.89	2.80218
5.9	2.77586
5.91	2.77487
5.92	2.79889
5.93	2.7956
5.94	2.75251
5.95	2.76961
5.96	2.78014
5.97	2.78738
5.98	2.80317
5.99	2.7808
6	2.76698
6.01	2.77422
6.02	2.78376
6.03	2.7877
6.04	2.77948
6.05	2.79165
6.06	2.80744
6.07	2.78869
6.08	2.75316
6.09	2.75645
6.1	2.79395
6.11	2.78935
6.12	2.76303
6.13	2.7604
6.14	2.79363
6.15	2.77981
6.16	2.77718
6.17	2.74264
6.18	2.76172
6.19	2.77784
6.2	2.79132
6.21	2.78409
6.22	2.76928
6.23	2.77191
6.24	2.79659
6.25	2.7683
6.26	2.78014
6.27	2.80317
6.28	2.78507
6.29	2.77422
6.3	2.75283
6.31	2.78343
6.32	2.77455
6.33	2.7729
6.34	2.74626
6.35	2.76862
6.36	2.80645
6.37	2.77455
6.38	2.7854
6.39	2.77652
6.4	2.75514
6.41	2.73737
6.42	2.78047
6.43	2.7627
6.44	2.74823
6.45	2.75448
6.46	2.77882
6.47	2.76928
6.48	2.74297
6.49	2.74724
6.5	2.77356
6.51	2.75974
6.52	2.76106
6.53	2.77191
6.54	2.77849
6.55	2.76895
6.56	2.77455
6.57	2.74955
6.58	2.80119
6.59	2.76961
6.6	2.7479
6.61	2.78409
6.62	2.79988
6.63	2.74889
6.64	2.76007
6.65	2.7808
6.66	2.75349
6.67	2.7502
6.68	2.74395
6.69	2.78573
6.7	2.7808
6.71	2.75251
6.72	2.77948
6.73	2.78277
6.74	2.80481
6.75	2.77915
6.76	2.73639
6.77	2.75349
6.78	2.76599
6.79	2.76237
6.8	2.77487
6.81	2.78803
6.82	2.79099
6.83	2.74297
6.84	2.76534
6.85	2.75974
6.86	2.7479
6.87	2.7229
6.88	2.76435
6.89	2.74593
6.9	2.74132
6.91	2.76632
6.92	2.7808
6.93	2.79132
6.94	2.77652
6.95	2.76994
6.96	2.76303
6.97	2.76007
6.98	2.75876
6.99	2.78343
7	2.78639
7.01	2.75218
7.02	2.75843
7.03	2.79132
7.04	2.78935
7.05	2.75514
7.06	2.76566
7.07	2.76303
7.08	2.77685
7.09	2.76632
7.1	2.77849
7.11	2.78902
7.12	2.78705
7.13	2.77422
7.14	2.75349
7.15	2.78441
7.16	2.79001
7.17	2.74856
7.18	2.74395
7.19	2.74264
7.2	2.75316
7.21	2.76961
7.22	2.77356
7.23	2.74691
7.24	2.76599
7.25	2.79659
7.26	2.78014
7.27	2.78277
7.28	2.77784
7.29	2.78672
7.3	2.77718
7.31	2.76534
7.32	2.78968
7.33	2.7683
7.34	2.78277
7.35	2.76435
7.36	2.77652
7.37	2.7808
7.38	2.78968
7.39	2.7377
7.4	2.75678
7.41	2.79428
7.42	2.79494
7.43	2.78869
7.44	2.76961
7.45	2.74033
7.46	2.77784
7.47	2.76764
7.48	2.76764
7.49	2.7683
7.5	2.7706
7.51	2.7581
7.52	2.76369
7.53	2.77422
7.54	2.76106
7.55	2.74264
7.56	2.76698
7.57	2.76237
7.58	2.74724
7.59	2.75974
7.6	2.73737
7.61	2.74132
7.62	2.75382
7.63	2.74132
7.64	2.75218
7.65	2.75711
7.66	2.75053
7.67	2.7558
7.68	2.78343
7.69	2.77422
7.7	2.77849
7.71	2.76731
7.72	2.76928
7.73	2.77553
7.74	2.77487
7.75	2.7729
7.76	2.78606
7.77	2.74955
7.78	2.74165
7.79	2.7729
7.8	2.77619
7.81	2.74297
7.82	2.75678
7.83	2.74428
7.84	2.75908
7.85	2.7558
7.86	2.76205
7.87	2.75448
7.88	2.77126
7.89	2.74264
7.9	2.7683
7.91	2.7854
7.92	2.76237
7.93	2.76928
7.94	2.76764
7.95	2.7604
7.96	2.78606
7.97	2.77751
7.98	2.74691
7.99	2.72816
8	2.76928
8.01	2.75086
8.02	2.75514
8.03	2.72454
8.04	2.76435
8.05	2.77882
8.06	2.77455
8.07	2.75382
8.08	2.76205
8.09	2.77652
8.1	2.7831
8.11	2.7752
8.12	2.75086
8.13	2.76435
8.14	2.77159
8.15	2.76731
8.16	2.76698
8.17	2.72849
8.18	2.7581
8.19	2.75481
8.2	2.7706
8.21	2.77191
8.22	2.73244
8.23	2.76599
8.24	2.77948
8.25	2.76172
8.26	2.74231
8.27	2.76731
8.28	2.78869
8.29	2.75711
8.3	2.79231
8.31	2.77159
8.32	2.74757
8.33	2.76895
8.34	2.77784
8.35	2.7706
8.36	2.76928
8.37	2.77389
8.38	2.76764
8.39	2.75053
8.4	2.78803
8.41	2.75777
8.42	2.7252
8.43	2.7354
8.44	2.77553
8.45	2.7877
8.46	2.76599
8.47	2.75744
8.48	2.76961
8.49	2.75251
8.5	2.7627
8.51	2.72191
8.52	2.73573
8.53	2.76073
8.54	2.74395
8.55	2.74395
8.56	2.73079
8.57	2.76468
8.58	2.79001
8.59	2.76501
8.6	2.76336
8.61	2.75053
8.62	2.7706
8.63	2.76435
8.64	2.71895
8.65	2.71566
8.66	2.75415
8.67	2.7627
8.68	2.77389
8.69	2.77126
8.7	2.75941
8.71	2.73968
8.72	2.76139
8.73	2.75711
8.74	2.75612
8.75	2.74955
8.76	2.76007
8.77	2.75152
8.78	2.74626
8.79	2.7354
8.8	2.77191
8.81	2.77619
8.82	2.74757
8.83	2.77882
8.84	2.78968
8.85	2.76731
8.86	2.75316
8.87	2.79198
8.88	2.77619
8.89	2.74823
8.9	2.74527
8.91	2.7275
8.92	2.75481
8.93	2.73803
8.94	2.74658
8.95	2.76599
8.96	2.74889
8.97	2.76566
8.98	2.76599
8.99	2.75941
9	2.75777
9.01	2.72849
9.02	2.75448
9.03	2.8002
9.04	2.77455
9.05	2.72553
9.06	2.75908
9.07	2.75349
9.08	2.75316
9.09	2.79757
9.1	2.7706
9.11	2.76632
9.12	2.74132
9.13	2.7377
9.14	2.74494
9.15	2.74132
9.16	2.74001
9.17	2.7502
9.18	2.77981
9.19	2.7275
9.2	2.74691
9.21	2.75185
9.22	2.7683
9.23	2.78277
9.24	2.7604
9.25	2.71994
9.26	2.74231
9.27	2.75908
9.28	2.74428
9.29	2.78409
9.3	2.75711
9.31	2.74658
9.32	2.74987
9.33	2.75152
9.34	2.73902
9.35	2.73639
9.36	2.74494
9.37	2.74724
9.38	2.7706
9.39	2.76369
9.4	2.76928
9.41	2.76599
9.42	2.75382
9.43	2.75316
9.44	2.7831
9.45	2.74889
9.46	2.75415
9.47	2.75283
9.48	2.76435
9.49	2.79494
9.5	2.77257
9.51	2.74395
9.52	2.73047
9.53	2.7377
9.54	2.74428
9.55	2.77389
9.56	2.75283
9.57	2.76007
9.58	2.76994
9.59	2.78376
9.6	2.7808
9.61	2.78869
9.62	2.76468
9.63	2.76139
9.64	2.77093
9.65	2.78047
9.66	2.74922
9.67	2.76468
9.68	2.76237
9.69	2.77915
9.7	2.75612
9.71	2.75086
9.72	2.73178
9.73	2.74658
9.74	2.74527
9.75	2.74922
9.76	2.7683
9.77	2.72849
9.78	2.76599
9.79	2.7729
9.8	2.78507
9.81	2.75251
9.82	2.76994
9.83	2.7877
9.84	2.76303
9.85	2.7479
9.86	2.76336
9.87	2.76764
9.88	2.7831
9.89	2.75876
9.9	2.75218
9.91	2.75448
9.92	2.72652
9.93	2.75843
9.94	2.73672
9.95	2.74001
9.96	2.74461
9.97	2.75218
9.98	2.75876
9.99	2.74066
10	2.7479
10.01	2.73573
10.02	2.73474
10.03	2.76237
10.04	2.76205
10.05	2.74626
10.06	2.76468
10.07	2.77619
10.08	2.7604
10.09	2.74889
10.1	2.76534
10.11	2.75974
10.12	2.76928
10.13	2.73869
10.14	2.74231
10.15	2.75547
10.16	2.76632
10.17	2.75283
10.18	2.78178
10.19	2.75514
10.2	2.75777
10.21	2.74033
10.22	2.74099
10.23	2.75744
10.24	2.73803
10.25	2.75053
10.26	2.73869
10.27	2.73408
10.28	2.75283
10.29	2.75349
10.3	2.72652
10.31	2.76369
10.32	2.74889
10.33	2.75777
10.34	2.7581
10.35	2.75382
10.36	2.74823
10.37	2.74099
10.38	2.74626
10.39	2.75349
10.4	2.74165
10.41	2.76862
10.42	2.72323
10.43	2.75251
10.44	2.75283
10.45	2.7331
10.46	2.73968
10.47	2.75744
10.48	2.74922
10.49	2.75251
10.5	2.70579
10.51	2.74691
10.52	2.76007
10.53	2.74362
10.54	2.70744
10.55	2.73145
10.56	2.74593
10.57	2.75612
10.58	2.75744
10.59	2.75547
10.6	2.77257
10.61	2.76435
10.62	2.70382
10.63	2.69527
10.64	2.74626
10.65	2.72882
10.66	2.75678
10.67	2.74132
10.68	2.76665
10.69	2.78343
10.7	2.74329
10.71	2.70316
10.72	2.74889
10.73	2.75481
10.74	2.74626
10.75	2.72191
10.76	2.73573
10.77	2.75678
10.78	2.73672
10.79	2.73211
10.8	2.73672
10.81	2.69823
10.82	2.70875
10.83	2.71599
10.84	2.74691
10.85	2.74001
10.86	2.71698
10.87	2.72981
10.88	2.74395
10.89	2.75415
10.9	2.71303
10.91	2.72718
10.92	2.75152
10.93	2.74724
10.94	2.74001
10.95	2.76928
10.96	2.76764
10.97	2.7502
10.98	2.76468
10.99	2.73869
11	2.75547
11.01	2.79988
11.02	2.73902
11.03	2.71369
11.04	2.76402
11.05	2.76961
11.06	2.75547
11.07	2.73902
11.08	2.75086
11.09	2.7479
11.1	2.74297
11.11	2.75547
11.12	2.74823
11.13	2.74856
11.14	2.72454
11.15	2.73507
11.16	2.7502
11.17	2.78836
11.18	2.74198
11.19	2.73573
11.2	2.74823
11.21	2.74165
11.22	2.75185
11.23	2.76534
11.24	2.75514
11.25	2.75251
11.26	2.74757
11.27	2.71862
11.28	2.715
11.29	2.71928
11.3	2.73803
11.31	2.73211
11.32	2.73935
11.33	2.74955
11.34	2.74955
11.35	2.73672
11.36	2.73737
11.37	2.74856
11.38	2.71402
11.39	2.73474
11.4	2.72849
11.41	2.7275
11.42	2.73737
11.43	2.75382
11.44	2.74494
11.45	2.72191
11.46	2.7025
11.47	2.72224
11.48	2.73014
11.49	2.73704
11.5	2.72422
11.51	2.73047
11.52	2.73408
11.53	2.73968
11.54	2.74231
11.55	2.74494
11.56	2.71599
11.57	2.72224
11.58	2.74362
11.59	2.75119
11.6	2.74527
11.61	2.76599
11.62	2.76895
11.63	2.73968
11.64	2.72257
11.65	2.74428
11.66	2.73112
11.67	2.74856
11.68	2.77093
11.69	2.76665
11.7	2.75908
11.71	2.77553
11.72	2.74494
11.73	2.74461
11.74	2.75744
11.75	2.77422
11.76	2.74658
11.77	2.74264
11.78	2.77389
11.79	2.76665
11.8	2.73902
11.81	2.74461
11.82	2.73803
11.83	2.75744
11.84	2.7627
11.85	2.74362
11.86	2.76599
11.87	2.73244
11.88	2.7331
11.89	2.78145
11.9	2.76073
11.91	2.75678
11.92	2.77159
11.93	2.75119
11.94	2.74494
11.95	2.74823
11.96	2.76797
11.97	2.7252
11.98	2.72685
11.99	2.74395
12	2.73145
12.01	2.75645
12.02	2.75514
12.03	2.73408
12.04	2.7377
12.05	2.74297
12.06	2.74198
12.07	2.72422
12.08	2.73803
12.09	2.75185
12.1	2.75843
12.11	2.7252
12.12	2.7229
12.13	2.71073
12.14	2.73869
12.15	2.71665
12.16	2.74132
12.17	2.7331
12.18	2.77487
12.19	2.74033
12.2	2.75086
12.21	2.73343
12.22	2.73343
12.23	2.74724
12.24	2.74987
12.25	2.77422
12.26	2.75843
12.27	2.73968
12.28	2.76566
12.29	2.76928
12.3	2.75678
12.31	2.76731
12.32	2.75547
12.33	2.74297
12.34	2.71797
12.35	2.73408
12.36	2.74428
12.37	2.75974
12.38	2.75251
12.39	2.73704
12.4	2.73014
12.41	2.73474
12.42	2.73047
12.43	2.72125
12.44	2.75349
12.45	2.77257
12.46	2.73639
12.47	2.7377
12.48	2.71303
12.49	2.71435
12.5	2.71468
12.51	2.73968
12.52	2.76139
12.53	2.74198
12.54	2.73639
12.55	2.73902
12.56	2.74955
12.57	2.74856
12.58	2.76994
12.59	2.76862
12.6	2.75514
12.61	2.73343
12.62	2.75382
12.63	2.7706
12.64	2.7706
12.65	2.75316
12.66	2.74099
12.67	2.72783
12.68	2.70941
12.69	2.72783
12.7	2.73277
12.71	2.7456
12.72	2.7479
12.73	2.73672
12.74	2.7229
12.75	2.72586
12.76	2.73704
12.77	2.75349
12.78	2.75908
12.79	2.74066
12.8	2.75283
12.81	2.7456
12.82	2.76336
12.83	2.72718
12.84	2.72882
12.85	2.73968
12.86	2.7331
12.87	2.74132
12.88	2.74297
12.89	2.74001
12.9	2.71468
12.91	2.74658
12.92	2.76566
12.93	2.7252
12.94	2.78441
12.95	2.77487
12.96	2.7275
12.97	2.73244
12.98	2.73178
12.99	2.73968
13	2.74955
13.01	2.78244
13.02	2.72158
13.03	2.71106
13.04	2.73079
13.05	2.72487
13.06	2.76139
13.07	2.7604
13.08	2.7706
13.09	2.76961
13.1	2.74823
13.11	2.76139
13.12	2.7558
13.13	2.73211
13.14	2.73244
13.15	2.74264
13.16	2.74264
13.17	2.7331
13.18	2.74823
13.19	2.75448
13.2	2.76172
13.21	2.72915
13.22	2.74527
13.23	2.75744
13.24	2.74001
13.25	2.7354
13.26	2.73441
13.27	2.72389
13.28	2.73902
13.29	2.77191
13.3	2.73573
13.31	2.71928
13.32	2.75382
13.33	2.7683
13.34	2.76862
13.35	2.74099
13.36	2.74527
13.37	2.72816
13.38	2.74264
13.39	2.73014
13.4	2.71994
13.41	2.74757
13.42	2.72783
13.43	2.74626
13.44	2.72718
13.45	2.71764
13.46	2.73606
13.47	2.715
13.48	2.72553
13.49	2.7229
13.5	2.73737
13.51	2.75152
13.52	2.77784
13.53	2.75382
13.54	2.75514
13.55	2.70678
13.56	2.72816
13.57	2.74724
13.58	2.74856
13.59	2.74987
13.6	2.73376
13.61	2.72553
13.62	2.72783
13.63	2.7558
13.64	2.73803
13.65	2.73376
13.66	2.75941
13.67	2.70579
13.68	2.76468
13.69	2.72981
13.7	2.71797
13.71	2.74823
13.72	2.74461
13.73	2.72553
13.74	2.75876
13.75	2.73343
