"BIO-KINE ASCII FILE"
"_COMMENT"	"MOS-500 Spectrometer"
"_COMMENT"	"Kinetics measurement"
"_COMMENT"	"Y Unit : Volt,  X Unit : s"
"_COMMENT"	"Excitation wavelength : 380 nm"
"_COMMENT"	"Fentes bandwidth =  1 nm"
"_COMMENT"	"HV= 1000V"
"_COMMENT"	"Timebase  1 =  .01 s   3001 pts"
"_SFM"	"SFM-400 /S  Advanced mode"
"_SFM"	"Ratio : S1: 2.5, S2: 0, S3: 0, S4: 1"
"_SFM"	"Content : S1: , S2: , S3: , S4:"
"_SFM"	"Concentration : S1: , S2: , S3: , S4:"
"_SFM"	"Total volume : 209 µl  Flow : 3.5 mL/s"
"_SFM"	"Acquisition start :  10 ms before stop"
"_SFM"	"cuve=FC-15, s1=10 ml , s2=10 ml , s3=10 ml , s4=1.9 ml"
"_UNITX"	"s"
"_UNITY"	"Volt"
"_DELTAX"	0
"_DATA"
1e-300	2.65908
0.01	2.60809
0.02	2.59691
0.03	2.66928
0.04	2.67356
0.05	2.70448
0.06	2.7331
0.07	2.76599
0.08	2.7502
0.09	2.72553
0.1	2.74757
0.11	2.76106
0.12	2.78705
0.13	2.79264
0.14	2.81632
0.15	2.81271
0.16	2.78738
0.17	2.79724
0.18	2.80152
0.19	2.80744
0.2	2.80448
0.21	2.81994
0.22	2.80251
0.23	2.81567
0.24	2.83014
0.25	2.81632
0.26	2.82093
0.27	2.82619
0.28	2.78836
0.29	2.79363
0.3	2.82685
0.31	2.83771
0.32	2.82652
0.33	2.80218
0.34	2.8002
0.35	2.80678
0.36	2.80711
0.37	2.82488
0.38	2.81271
0.39	2.8308
0.4	2.79626
0.41	2.81961
0.42	2.81665
0.43	2.80349
0.44	2.83146
0.45	2.81435
0.46	2.81698
0.47	2.81698
0.48	2.82619
0.49	2.83475
0.5	2.81435
0.51	2.7979
0.52	2.85843
0.53	2.83409
0.54	2.83803
0.55	2.82586
0.56	2.80284
0.57	2.80613
0.58	2.82323
0.59	2.83211
0.6	2.81567
0.61	2.81567
0.62	2.80218
0.63	2.81402
0.64	2.79856
0.65	2.83178
0.66	2.82915
0.67	2.80843
0.68	2.82521
0.69	2.81896
0.7	2.7979
0.71	2.79922
0.72	2.81567
0.73	2.8081
0.74	2.8354
0.75	2.84988
0.76	2.81797
0.77	2.79428
0.78	2.82323
0.79	2.80678
0.8	2.82422
0.81	2.83376
0.82	2.83409
0.83	2.77751
0.84	2.78113
0.85	2.80053
0.86	2.80349
0.87	2.8081
0.88	2.80514
0.89	2.8206
0.9	2.81139
0.91	2.83376
0.92	2.80613
0.93	2.7933
0.94	2.8104
0.95	2.79461
0.96	2.83573
0.97	2.84264
0.98	2.79395
0.99	2.82718
1	2.80218
1.01	2.79724
1.02	2.81665
1.03	2.82948
1.04	2.8354
1.05	2.8104
1.06	2.82685
1.07	2.79724
1.08	2.82882
1.09	2.82192
1.1	2.80251
1.11	2.78836
1.12	2.80317
1.13	2.78277
1.14	2.80974
1.15	2.81303
1.16	2.79001
1.17	2.78244
1.18	2.79395
1.19	2.83771
1.2	2.81205
1.21	2.82619
1.22	2.80909
1.23	2.80251
1.24	2.79297
1.25	2.77323
1.26	2.78441
1.27	2.79626
1.28	2.7956
1.29	2.81665
1.3	2.80613
1.31	2.79165
1.32	2.76698
1.33	2.8002
1.34	2.75612
1.35	2.80909
1.36	2.81205
1.37	2.78277
1.38	2.7683
1.39	2.8002
1.4	2.79757
1.41	2.75908
1.42	2.82784
1.43	2.84264
1.44	2.82093
1.45	2.79428
1.46	2.7502
1.47	2.78244
1.48	2.81994
1.49	2.79461
1.5	2.80481
1.51	2.78803
1.52	2.81698
1.53	2.81863
1.54	2.79692
1.55	2.78113
1.56	2.77849
1.57	2.76468
1.58	2.78244
1.59	2.80514
1.6	2.80843
1.61	2.77948
1.62	2.79297
1.63	2.77849
1.64	2.80053
1.65	2.80415
1.66	2.79757
1.67	2.78738
1.68	2.77981
1.69	2.79034
1.7	2.76764
1.71	2.77126
1.72	2.78441
1.73	2.77093
1.74	2.79856
1.75	2.80711
1.76	2.7956
1.77	2.77323
1.78	2.79132
1.79	2.75448
1.8	2.78211
1.81	2.78047
1.82	2.81205
1.83	2.81271
1.84	2.7877
1.85	2.7956
1.86	2.7854
1.87	2.78738
1.88	2.78409
1.89	2.77981
1.9	2.78507
1.91	2.78113
1.92	2.80349
1.93	2.81501
1.94	2.80678
1.95	2.79395
1.96	2.78507
1.97	2.78145
1.98	2.78474
1.99	2.78639
2	2.79461
2.01	2.81369
2.02	2.81731
2.03	2.82553
2.04	2.81007
2.05	2.80744
2.06	2.8058
2.07	2.81139
2.08	2.7808
2.09	2.76632
2.1	2.76632
2.11	2.78014
2.12	2.80119
2.13	2.79889
2.14	2.7854
2.15	2.80152
2.16	2.82948
2.17	2.79132
2.18	2.80481
2.19	2.82553
2.2	2.81139
2.21	2.75218
2.22	2.75119
2.23	2.75612
2.24	2.79231
2.25	2.79692
2.26	2.79297
2.27	2.83343
2.28	2.80909
2.29	2.82422
2.3	2.81139
2.31	2.7831
2.32	2.78803
2.33	2.75645
2.34	2.78211
2.35	2.78178
2.36	2.81106
2.37	2.80481
2.38	2.80481
2.39	2.80185
2.4	2.79889
2.41	2.75777
2.42	2.77191
2.43	2.76632
2.44	2.74231
2.45	2.78211
2.46	2.76764
2.47	2.78968
2.48	2.79889
2.49	2.80974
2.5	2.76698
2.51	2.77685
2.52	2.77126
2.53	2.80349
2.54	2.76007
2.55	2.78672
2.56	2.7956
2.57	2.78441
2.58	2.80349
2.59	2.79034
2.6	2.78343
2.61	2.79922
2.62	2.77455
2.63	2.80711
2.64	2.81501
2.65	2.79724
2.66	2.77389
2.67	2.79922
2.68	2.80547
2.69	2.7808
2.7	2.75119
2.71	2.7729
2.72	2.77093
2.73	2.77257
2.74	2.77487
2.75	2.74165
2.76	2.79692
2.77	2.81567
2.78	2.79626
2.79	2.80974
2.8	2.78211
2.81	2.80152
2.82	2.76369
2.83	2.77224
2.84	2.76895
2.85	2.76073
2.86	2.79165
2.87	2.78935
2.88	2.75612
2.89	2.75185
2.9	2.79001
2.91	2.76698
2.92	2.7683
2.93	2.81435
2.94	2.79001
2.95	2.78968
2.96	2.75481
2.97	2.7956
2.98	2.77487
2.99	2.77652
3	2.79034
3.01	2.7377
3.02	2.7479
3.03	2.80284
3.04	2.79724
3.05	2.7558
3.06	2.7854
3.07	2.77816
3.08	2.8002
3.09	2.77093
3.1	2.75316
3.11	2.78343
3.12	2.79823
3.13	2.78211
3.14	2.78705
3.15	2.7627
3.16	2.76731
3.17	2.7979
3.18	2.80613
3.19	2.78113
3.2	2.77751
3.21	2.76764
3.22	2.77981
3.23	2.78573
3.24	2.77356
3.25	2.7752
3.26	2.75876
3.27	2.7558
3.28	2.77257
3.29	2.79889
3.3	2.78639
3.31	2.76632
3.32	2.77586
3.33	2.75547
3.34	2.7854
3.35	2.7479
3.36	2.73145
3.37	2.75941
3.38	2.76862
3.39	2.76928
3.4	2.77323
3.41	2.76303
3.42	2.76928
3.43	2.75547
3.44	2.74823
3.45	2.77652
3.46	2.77389
3.47	2.77257
3.48	2.78244
3.49	2.78803
3.5	2.77586
3.51	2.76007
3.52	2.76534
3.53	2.77586
3.54	2.76862
3.55	2.80185
3.56	2.79593
3.57	2.76237
3.58	2.78507
3.59	2.77257
3.6	2.77487
3.61	2.75119
3.62	2.77027
3.63	2.76369
3.64	2.80974
3.65	2.78343
3.66	2.78902
3.67	2.76797
3.68	2.76599
3.69	2.79099
3.7	2.76961
3.71	2.75481
3.72	2.76895
3.73	2.76665
3.74	2.7877
3.75	2.75612
3.76	2.73112
3.77	2.78343
3.78	2.78573
3.79	2.76468
3.8	2.76862
3.81	2.78113
3.82	2.77487
3.83	2.76205
3.84	2.78244
3.85	2.74658
3.86	2.73178
3.87	2.75514
3.88	2.77126
3.89	2.7604
3.9	2.79231
3.91	2.75086
3.92	2.7752
3.93	2.79988
3.94	2.78376
3.95	2.75612
3.96	2.73639
3.97	2.76665
3.98	2.77323
3.99	2.79066
4	2.74626
4.01	2.78705
4.02	2.80415
4.03	2.81961
4.04	2.77126
4.05	2.74395
4.06	2.75086
4.07	2.76731
4.08	2.80119
4.09	2.74856
4.1	2.7502
4.11	2.77816
4.12	2.76731
4.13	2.75349
4.14	2.76402
4.15	2.76139
4.16	2.74231
4.17	2.75218
4.18	2.74066
4.19	2.7604
4.2	2.76599
4.21	2.77126
4.22	2.76698
4.23	2.7808
4.24	2.77455
4.25	2.76106
4.26	2.7854
4.27	2.79724
4.28	2.74033
4.29	2.75119
4.3	2.77389
4.31	2.77619
4.32	2.78935
4.33	2.79099
4.34	2.82488
4.35	2.78474
4.36	2.80481
4.37	2.75251
4.38	2.73277
4.39	2.76862
4.4	2.75612
4.41	2.77487
4.42	2.7854
4.43	2.77323
4.44	2.74231
4.45	2.75514
4.46	2.74724
4.47	2.76698
4.48	2.75152
4.49	2.75218
4.5	2.7479
4.51	2.75514
4.52	2.76205
4.53	2.78507
4.54	2.80218
4.55	2.76007
4.56	2.75843
4.57	2.7604
4.58	2.73573
4.59	2.74198
4.6	2.74494
4.61	2.76994
4.62	2.78047
4.63	2.77981
4.64	2.73672
4.65	2.74395
4.66	2.74362
4.67	2.76534
4.68	2.75514
4.69	2.77323
4.7	2.7854
4.71	2.76994
4.72	2.74362
4.73	2.75053
4.74	2.76797
4.75	2.76139
4.76	2.74922
4.77	2.76895
4.78	2.7331
4.79	2.75514
4.8	2.76106
4.81	2.75876
4.82	2.77257
4.83	2.77422
4.84	2.73606
4.85	2.75514
4.86	2.76435
4.87	2.74626
4.88	2.7377
4.89	2.77224
4.9	2.77816
4.91	2.75053
4.92	2.76862
4.93	2.76402
4.94	2.75514
4.95	2.7627
4.96	2.74461
4.97	2.76369
4.98	2.77816
4.99	2.7479
5	2.76402
5.01	2.76139
5.02	2.75941
5.03	2.73935
5.04	2.7581
5.05	2.75645
5.06	2.7354
5.07	2.71829
5.08	2.77586
5.09	2.74395
5.1	2.74889
5.11	2.74264
5.12	2.72356
5.13	2.72487
5.14	2.75316
5.15	2.72454
5.16	2.75152
5.17	2.77257
5.18	2.7581
5.19	2.72685
5.2	2.74658
5.21	2.74658
5.22	2.73902
5.23	2.74362
5.24	2.7479
5.25	2.75349
5.26	2.74428
5.27	2.73573
5.28	2.75678
5.29	2.72915
5.3	2.75908
5.31	2.79066
5.32	2.77751
5.33	2.78606
5.34	2.74297
5.35	2.73014
5.36	2.73606
5.37	2.75382
5.38	2.75744
5.39	2.75053
5.4	2.76534
5.41	2.75152
5.42	2.75119
5.43	2.74362
5.44	2.7377
5.45	2.7479
5.46	2.77257
5.47	2.75711
5.48	2.74033
5.49	2.75941
5.5	2.77356
5.51	2.77389
5.52	2.7229
5.53	2.75876
5.54	2.72619
5.55	2.75185
5.56	2.72125
5.57	2.73672
5.58	2.73211
5.59	2.72389
5.6	2.69987
5.61	2.73507
5.62	2.75711
5.63	2.7604
5.64	2.76172
5.65	2.73935
5.66	2.74889
5.67	2.72948
5.68	2.76106
5.69	2.7331
5.7	2.76007
5.71	2.72948
5.72	2.72948
5.73	2.74099
5.74	2.74165
5.75	2.74757
5.76	2.73639
5.77	2.77981
5.78	2.75777
5.79	2.77224
5.8	2.77224
5.81	2.7581
5.82	2.73869
5.83	2.74987
5.84	2.74691
5.85	2.74527
5.86	2.73606
5.87	2.74329
5.88	2.72981
5.89	2.73277
5.9	2.72257
5.91	2.73869
5.92	2.74823
5.93	2.73573
5.94	2.72586
5.95	2.75547
5.96	2.75777
5.97	2.76237
5.98	2.74198
5.99	2.71632
6	2.74955
6.01	2.71895
6.02	2.73145
6.03	2.76435
6.04	2.72718
6.05	2.75382
6.06	2.74527
6.07	2.72586
6.08	2.72915
6.09	2.7502
6.1	2.73507
6.11	2.73935
6.12	2.73704
6.13	2.74066
6.14	2.75481
6.15	2.73573
6.16	2.71928
6.17	2.76862
6.18	2.76566
6.19	2.78639
6.2	2.73507
6.21	2.7456
6.22	2.75481
6.23	2.74231
6.24	2.74889
6.25	2.72718
6.26	2.7331
6.27	2.76731
6.28	2.74132
6.29	2.7354
6.3	2.76797
6.31	2.74362
6.32	2.7502
6.33	2.75152
6.34	2.7456
6.35	2.75448
6.36	2.72915
6.37	2.71106
6.38	2.74724
6.39	2.76862
6.4	2.74593
6.41	2.72652
6.42	2.73935
6.43	2.74001
6.44	2.7683
6.45	2.72586
6.46	2.73704
6.47	2.74889
6.48	2.76237
6.49	2.7479
6.5	2.77981
6.51	2.73902
6.52	2.73277
6.53	2.72619
6.54	2.75547
6.55	2.72652
6.56	2.75119
6.57	2.73474
6.58	2.72586
6.59	2.73869
6.6	2.74494
6.61	2.73474
6.62	2.74362
6.63	2.73869
6.64	2.75612
6.65	2.74066
6.66	2.72981
6.67	2.72783
6.68	2.73079
6.69	2.76994
6.7	2.74033
6.71	2.73079
6.72	2.75908
6.73	2.74395
6.74	2.69987
6.75	2.7331
6.76	2.74823
6.77	2.74362
6.78	2.73836
6.79	2.74428
6.8	2.70415
6.81	2.73178
6.82	2.7479
6.83	2.73277
6.84	2.72224
6.85	2.75316
6.86	2.72718
6.87	2.73606
6.88	2.77586
6.89	2.76731
6.9	2.74691
6.91	2.73573
6.92	2.73079
6.93	2.75908
6.94	2.72586
6.95	2.76501
6.96	2.74198
6.97	2.72093
6.98	2.75448
6.99	2.72257
7	2.75185
7.01	2.76797
7.02	2.74955
7.03	2.74955
7.04	2.72619
7.05	2.74395
7.06	2.75218
7.07	2.75185
7.08	2.74922
7.09	2.67849
7.1	2.71829
7.11	2.72783
7.12	2.71895
7.13	2.74922
7.14	2.7275
7.15	2.72553
7.16	2.74066
7.17	2.72718
7.18	2.7502
7.19	2.74297
7.2	2.75086
7.21	2.73047
7.22	2.70218
7.23	2.73014
7.24	2.7456
7.25	2.72027
7.26	2.72586
7.27	2.72652
7.28	2.7331
7.29	2.74856
7.3	2.74922
7.31	2.76073
7.32	2.73277
7.33	2.72718
7.34	2.7354
7.35	2.7354
7.36	2.75349
7.37	2.75053
7.38	2.73343
7.39	2.7252
7.4	2.71961
7.41	2.76698
7.42	2.74593
7.43	2.75251
7.44	2.74231
7.45	2.76501
7.46	2.72981
7.47	2.71829
7.48	2.71928
7.49	2.74955
7.5	2.73474
7.51	2.74856
7.52	2.75316
7.53	2.73474
7.54	2.72882
7.55	2.73672
7.56	2.74922
7.57	2.71139
7.58	2.73145
7.59	2.75053
7.6	2.76534
7.61	2.7456
7.62	2.71632
7.63	2.73639
7.64	2.74362
7.65	2.7558
7.66	2.71928
7.67	2.73935
7.68	2.77915
7.69	2.73935
7.7	2.72125
7.71	2.74297
7.72	2.71204
7.73	2.73211
7.74	2.72224
7.75	2.7331
7.76	2.72191
7.77	2.73737
7.78	2.73737
7.79	2.74165
7.8	2.74362
7.81	2.73244
7.82	2.74987
7.83	2.74264
7.84	2.72093
7.85	2.72224
7.86	2.72158
7.87	2.69527
7.88	2.69954
7.89	2.70119
7.9	2.72125
7.91	2.73672
7.92	2.7502
7.93	2.75415
7.94	2.72882
7.95	2.75251
7.96	2.74066
7.97	2.73277
7.98	2.75349
7.99	2.75908
8	2.73704
8.01	2.73803
8.02	2.74198
8.03	2.76303
8.04	2.7229
8.05	2.74033
8.06	2.70678
8.07	2.69889
8.08	2.72849
8.09	2.7275
8.1	2.72553
8.11	2.73079
8.12	2.70119
8.13	2.72948
8.14	2.72981
8.15	2.73014
8.16	2.74889
8.17	2.7229
8.18	2.7331
8.19	2.74099
8.2	2.72783
8.21	2.74626
8.22	2.73441
8.23	2.71599
8.24	2.7252
8.25	2.71698
8.26	2.72487
8.27	2.70612
8.28	2.73704
8.29	2.72093
8.3	2.69198
8.31	2.73408
8.32	2.73869
8.33	2.73869
8.34	2.75941
8.35	2.74626
8.36	2.74724
8.37	2.69856
8.38	2.73639
8.39	2.71566
8.4	2.71764
8.41	2.71435
8.42	2.72487
8.43	2.72125
8.44	2.70053
8.45	2.72783
8.46	2.72389
8.47	2.68967
8.48	2.7206
8.49	2.73211
8.5	2.73343
8.51	2.71402
8.52	2.73178
8.53	2.73343
8.54	2.73079
8.55	2.73277
8.56	2.71829
8.57	2.71829
8.58	2.74428
8.59	2.74362
8.6	2.7206
8.61	2.72553
8.62	2.7377
8.63	2.72718
8.64	2.72257
8.65	2.72685
8.66	2.68967
8.67	2.73211
8.68	2.72389
8.69	2.72487
8.7	2.73014
8.71	2.72487
8.72	2.71829
8.73	2.70875
8.74	2.6956
8.75	2.7081
8.76	2.70908
8.77	2.71928
8.78	2.69
8.79	2.7354
8.8	2.71106
8.81	2.7558
8.82	2.74987
8.83	2.73474
8.84	2.71468
8.85	2.6956
8.86	2.71632
8.87	2.71829
8.88	2.75283
8.89	2.73704
8.9	2.73376
8.91	2.72685
8.92	2.7025
8.93	2.71862
8.94	2.72487
8.95	2.73836
8.96	2.71698
8.97	2.73474
8.98	2.72849
8.99	2.71698
9	2.7229
9.01	2.72619
9.02	2.72783
9.03	2.72718
9.04	2.6956
9.05	2.71961
9.06	2.74626
9.07	2.74494
9.08	2.71533
9.09	2.72586
9.1	2.71073
9.11	2.70415
9.12	2.71994
9.13	2.72158
9.14	2.73244
9.15	2.71829
9.16	2.73704
9.17	2.72323
9.18	2.72257
9.19	2.71665
9.2	2.73277
9.21	2.72356
9.22	2.72816
9.23	2.73606
9.24	2.69658
9.25	2.69856
9.26	2.72783
9.27	2.70053
9.28	2.7127
9.29	2.75514
9.3	2.73244
9.31	2.74494
9.32	2.74527
9.33	2.72125
9.34	2.68935
9.35	2.73803
9.36	2.73606
9.37	2.74922
9.38	2.72356
9.39	2.74066
9.4	2.73968
9.41	2.74889
9.42	2.71369
9.43	2.69856
9.44	2.71237
9.45	2.72816
9.46	2.71764
9.47	2.71862
9.48	2.73047
9.49	2.74198
9.5	2.71336
9.51	2.71336
9.52	2.70481
9.53	2.72027
9.54	2.74066
9.55	2.72685
9.56	2.74856
9.57	2.71599
9.58	2.71566
9.59	2.70546
9.6	2.72586
9.61	2.7127
9.62	2.73902
9.63	2.70744
9.64	2.71237
9.65	2.72027
9.66	2.72816
9.67	2.69658
9.68	2.72356
9.69	2.76205
9.7	2.73935
9.71	2.71928
9.72	2.71237
9.73	2.71698
9.74	2.71073
9.75	2.70086
9.76	2.73244
9.77	2.7081
9.78	2.72553
9.79	2.71106
9.8	2.74001
9.81	2.70645
9.82	2.70612
9.83	2.7127
9.84	2.72356
9.85	2.72093
9.86	2.72191
9.87	2.71829
9.88	2.7377
9.89	2.72619
9.9	2.7252
9.91	2.69132
9.92	2.71204
9.93	2.69099
9.94	2.74231
9.95	2.76007
9.96	2.73737
9.97	2.73178
9.98	2.68869
9.99	2.71369
10	2.71829
10.01	2.69658
10.02	2.7104
10.03	2.74955
10.04	2.7025
10.05	2.71566
10.06	2.70316
10.07	2.71171
10.08	2.71007
10.09	2.73014
10.1	2.73803
10.11	2.71204
10.12	2.71204
10.13	2.69527
10.14	2.70645
10.15	2.71632
10.16	2.74132
10.17	2.73606
10.18	2.72422
10.19	2.72849
10.2	2.72224
10.21	2.70481
10.22	2.69395
10.23	2.73573
10.24	2.71106
10.25	2.73343
10.26	2.71303
10.27	2.715
10.28	2.70843
10.29	2.71369
10.3	2.72323
10.31	2.7558
10.32	2.7479
10.33	2.72553
10.34	2.71533
10.35	2.75152
10.36	2.75908
10.37	2.71435
10.38	2.7331
10.39	2.74099
10.4	2.74165
10.41	2.7081
10.42	2.71369
10.43	2.72191
10.44	2.69691
10.45	2.71961
10.46	2.71336
10.47	2.73376
10.48	2.7002
10.49	2.70481
10.5	2.73573
10.51	2.72323
10.52	2.71731
10.53	2.72323
10.54	2.72389
10.55	2.72454
10.56	2.70448
10.57	2.71237
10.58	2.72553
10.59	2.7502
10.6	2.74823
10.61	2.72553
10.62	2.70678
10.63	2.69889
10.64	2.68902
10.65	2.71533
10.66	2.69033
10.67	2.70119
10.68	2.72849
10.69	2.70283
10.7	2.72356
10.71	2.74362
10.72	2.71928
10.73	2.7229
10.74	2.73968
10.75	2.72586
10.76	2.72816
10.77	2.74329
10.78	2.71797
10.79	2.69362
10.8	2.73277
10.81	2.71862
10.82	2.72027
10.83	2.72619
10.84	2.73737
10.85	2.74033
10.86	2.72224
10.87	2.74231
10.88	2.72224
10.89	2.7377
10.9	2.74889
10.91	2.70185
10.92	2.75086
10.93	2.70843
10.94	2.67619
10.95	2.72323
10.96	2.72849
10.97	2.72158
10.98	2.72027
10.99	2.72323
11	2.68375
11.01	2.69362
11.02	2.68507
11.03	2.72093
11.04	2.73836
11.05	2.73639
11.06	2.70744
11.07	2.71731
11.08	2.7206
11.09	2.69691
11.1	2.70711
11.11	2.70843
11.12	2.74132
11.13	2.75086
11.14	2.72224
11.15	2.71961
11.16	2.70316
11.17	2.68342
11.18	2.72718
11.19	2.715
11.2	2.73606
11.21	2.71237
11.22	2.71402
11.23	2.69856
11.24	2.70415
11.25	2.70415
11.26	2.72487
11.27	2.73014
11.28	2.73047
11.29	2.70218
11.3	2.73112
11.31	2.73968
11.32	2.70481
11.33	2.73145
11.34	2.75349
11.35	2.7206
11.36	2.72257
11.37	2.67619
11.38	2.68408
11.39	2.70316
11.4	2.70382
11.41	2.69527
11.42	2.75481
11.43	2.72356
11.44	2.71073
11.45	2.7104
11.46	2.70283
11.47	2.70744
11.48	2.74856
11.49	2.72224
11.5	2.72224
11.51	2.73079
11.52	2.715
11.53	2.69264
11.54	2.69033
11.55	2.7206
11.56	2.72454
11.57	2.72948
11.58	2.71731
11.59	2.70678
11.6	2.70316
11.61	2.71204
11.62	2.68935
11.63	2.70382
11.64	2.74757
11.65	2.7558
11.66	2.70678
11.67	2.69428
11.68	2.68408
11.69	2.74001
11.7	2.71566
11.71	2.73244
11.72	2.71961
11.73	2.66204
11.74	2.68507
11.75	2.71139
11.76	2.72718
11.77	2.71139
11.78	2.70119
11.79	2.69658
11.8	2.73507
11.81	2.70119
11.82	2.72718
11.83	2.70185
11.84	2.70283
11.85	2.73112
11.86	2.72356
11.87	2.74527
11.88	2.70941
11.89	2.72158
11.9	2.73935
11.91	2.71073
11.92	2.69757
11.93	2.68935
11.94	2.68375
11.95	2.69889
11.96	2.70875
11.97	2.6854
11.98	2.70382
11.99	2.71303
12	2.70843
12.01	2.70086
12.02	2.70941
12.03	2.71468
12.04	2.72093
12.05	2.72257
12.06	2.73047
12.07	2.72125
12.08	2.7104
12.09	2.74593
12.1	2.72027
12.11	2.71566
12.12	2.71961
12.13	2.70382
12.14	2.72849
12.15	2.70546
12.16	2.7252
12.17	2.72158
12.18	2.7025
12.19	2.70382
12.2	2.7025
12.21	2.70711
12.22	2.69658
12.23	2.71468
12.24	2.72158
12.25	2.74165
12.26	2.73145
12.27	2.71007
12.28	2.71764
12.29	2.7025
12.3	2.7252
12.31	2.72586
12.32	2.70481
12.33	2.70218
12.34	2.71106
12.35	2.71698
12.36	2.74033
12.37	2.74527
12.38	2.72389
12.39	2.69132
12.4	2.73145
12.41	2.74033
12.42	2.72356
12.43	2.72652
12.44	2.73803
12.45	2.74593
12.46	2.72389
12.47	2.71171
12.48	2.70908
12.49	2.74955
12.5	2.72323
12.51	2.72454
12.52	2.70053
12.53	2.69592
12.54	2.70316
12.55	2.74626
12.56	2.72619
12.57	2.74099
12.58	2.7104
12.59	2.68935
12.6	2.71862
12.61	2.70711
12.62	2.71599
12.63	2.69296
12.64	2.71468
12.65	2.71665
12.66	2.70744
12.67	2.72619
12.68	2.68441
12.69	2.71533
12.7	2.7127
12.71	2.72652
12.72	2.71599
12.73	2.68112
12.74	2.70941
12.75	2.7127
12.76	2.72356
12.77	2.71599
12.78	2.70744
12.79	2.7104
12.8	2.74329
12.81	2.70579
12.82	2.73014
12.83	2.73606
12.84	2.74066
12.85	2.72718
12.86	2.70382
12.87	2.71829
12.88	2.71106
12.89	2.70843
12.9	2.70415
12.91	2.70974
12.92	2.71106
12.93	2.69165
12.94	2.72257
12.95	2.7229
12.96	2.73704
12.97	2.69691
12.98	2.69296
12.99	2.72257
13	2.72454
13.01	2.69823
13.02	2.69724
13.03	2.71402
13.04	2.71402
13.05	2.73079
13.06	2.7252
13.07	2.72652
13.08	2.73376
13.09	2.70843
13.1	2.6979
13.11	2.69494
13.12	2.71731
13.13	2.70119
13.14	2.66994
13.15	2.7025
13.16	2.69198
13.17	2.70053
13.18	2.68474
13.19	2.70119
13.2	2.70678
13.21	2.6831
13.22	2.68474
13.23	2.7252
13.24	2.74461
13.25	2.74461
13.26	2.68704
13.27	2.70218
13.28	2.7229
13.29	2.73672
13.3	2.6956
13.31	2.71336
13.32	2.70185
13.33	2.73178
13.34	2.72586
13.35	2.71468
13.36	2.69428
13.37	2.71336
13.38	2.74461
13.39	2.70218
13.4	2.69921
13.41	2.74461
13.42	2.69724
13.43	2.69592
13.44	2.70415
13.45	2.71533
13.46	2.70283
13.47	2.72125
13.48	2.7002
13.49	2.70514
13.5	2.6706
13.51	2.69856
13.52	2.66829
13.53	2.66533
13.54	2.68869
13.55	2.69691
13.56	2.70448
13.57	2.74494
13.58	2.70382
13.59	2.72948
13.6	2.73474
13.61	2.69033
13.62	2.72389
13.63	2.70448
13.64	2.71171
13.65	2.72389
13.66	2.70678
13.67	2.73573
13.68	2.69461
13.69	2.71007
13.7	2.67816
13.71	2.71468
13.72	2.71237
13.73	2.69625
13.74	2.69296
13.75	2.70974
