"BIO-KINE ASCII FILE"
"_COMMENT"	"MOS-500 Spectrometer"
"_COMMENT"	"Kinetics measurement"
"_COMMENT"	"Y Unit : Volt,  X Unit : s"
"_COMMENT"	"Excitation wavelength : 380 nm"
"_COMMENT"	"Fentes bandwidth =  1 nm"
"_COMMENT"	"HV= 700V"
"_COMMENT"	"Timebase  1 =  .01 s   3001 pts"
"_SFM"	"SFM-400 /S  Advanced mode"
"_SFM"	"Ratio : S1: 2.5, S2: 0, S3: 0, S4: 1"
"_SFM"	"Content : S1: , S2: , S3: , S4:"
"_SFM"	"Concentration : S1: , S2: , S3: , S4:"
"_SFM"	"Total volume : 209 µl  Flow : 3.5 mL/s"
"_SFM"	"Acquisition start :  10 ms before stop"
"_SFM"	"cuve=FC-15, s1=10 ml , s2=10 ml , s3=10 ml , s4=1.9 ml"
"_UNITX"	"s"
"_UNITY"	"Volt"
"_DELTAX"	0
"_DATA"
1e-300	6.71579
0.01	7.36317
0.02	7.7918
0.03	7.77239
0.04	7.73851
0.05	7.74246
0.06	7.74607
0.07	7.74246
0.08	7.75693
0.09	7.76811
0.1	7.76877
0.11	7.78193
0.12	7.77206
0.13	7.76186
0.14	7.76844
0.15	7.78325
0.16	7.76351
0.17	7.76154
0.18	7.76121
0.19	7.74673
0.2	7.76055
0.21	7.76186
0.22	7.74443
0.23	7.74147
0.24	7.74015
0.25	7.74542
0.26	7.73456
0.27	7.74015
0.28	7.7293
0.29	7.73785
0.3	7.72107
0.31	7.71318
0.32	7.71351
0.33	7.71186
0.34	7.71252
0.35	7.69344
0.36	7.68752
0.37	7.69903
0.38	7.68982
0.39	7.68588
0.4	7.67963
0.41	7.67798
0.42	7.66449
0.43	7.66285
0.44	7.66153
0.45	7.66022
0.46	7.6362
0.47	7.64509
0.48	7.63851
0.49	7.63555
0.5	7.6237
0.51	7.6339
0.52	7.62798
0.53	7.61219
0.54	7.60693
0.55	7.60298
0.56	7.59508
0.57	7.5987
0.58	7.59278
0.59	7.59245
0.6	7.59607
0.61	7.57798
0.62	7.56975
0.63	7.57074
0.64	7.56614
0.65	7.56054
0.66	7.55396
0.67	7.53489
0.68	7.53719
0.69	7.53192
0.7	7.52864
0.71	7.51449
0.72	7.5112
0.73	7.51383
0.74	7.50956
0.75	7.51219
0.76	7.4862
0.77	7.47173
0.78	7.47666
0.79	7.47436
0.8	7.47173
0.81	7.45298
0.82	7.45067
0.83	7.44936
0.84	7.45528
0.85	7.44771
0.86	7.4339
0.87	7.44738
0.88	7.43751
0.89	7.42271
0.9	7.4135
0.91	7.40593
0.92	7.41218
0.93	7.40429
0.94	7.401
0.95	7.3885
0.96	7.38686
0.97	7.37995
0.98	7.35988
0.99	7.36218
1	7.34672
1.01	7.34574
1.02	7.34574
1.03	7.3533
1.04	7.3362
1.05	7.33159
1.06	7.34014
1.07	7.3306
1.08	7.32238
1.09	7.3135
1.1	7.30264
1.11	7.30495
1.12	7.29804
1.13	7.29179
1.14	7.29146
1.15	7.27962
1.16	7.26679
1.17	7.26021
1.18	7.26843
1.19	7.26415
1.2	7.25889
1.21	7.24508
1.22	7.23586
1.23	7.23323
1.24	7.21942
1.25	7.22501
1.26	7.20659
1.27	7.18751
1.28	7.19935
1.29	7.19113
1.3	7.20165
1.31	7.19211
1.32	7.17402
1.33	7.19803
1.34	7.17567
1.35	7.17205
1.36	7.15099
1.37	7.15395
1.38	7.14902
1.39	7.13948
1.4	7.1283
1.41	7.12698
1.42	7.10132
1.43	7.10428
1.44	7.10461
1.45	7.09902
1.46	7.09869
1.47	7.10001
1.48	7.08948
1.49	7.07533
1.5	7.07566
1.51	7.06612
1.52	7.06678
1.53	7.05856
1.54	7.04573
1.55	7.02961
1.56	7.03323
1.57	7.03849
1.58	7.0306
1.59	7.03948
1.6	7.02139
1.61	7.01415
1.62	7.00954
1.63	7.00198
1.64	6.98915
1.65	6.97862
1.66	6.97698
1.67	6.96645
1.68	6.96217
1.69	6.96678
1.7	6.94244
1.71	6.95658
1.72	6.94441
1.73	6.92994
1.74	6.93125
1.75	6.94178
1.76	6.91744
1.77	6.9204
1.78	6.91678
1.79	6.91579
1.8	6.9
1.81	6.88684
1.82	6.88882
1.83	6.89243
1.84	6.88487
1.85	6.8898
1.86	6.8727
1.87	6.87007
1.88	6.85757
1.89	6.85395
1.9	6.83289
1.91	6.83553
1.92	6.83914
1.93	6.83487
1.94	6.83289
1.95	6.80987
1.96	6.79309
1.97	6.80427
1.98	6.80362
1.99	6.8
2	6.78519
2.01	6.78914
2.02	6.77862
2.03	6.77598
2.04	6.76447
2.05	6.76151
2.06	6.76283
2.07	6.73848
2.08	6.74605
2.09	6.73026
2.1	6.74046
2.11	6.72829
2.12	6.71907
2.13	6.70756
2.14	6.71282
2.15	6.70953
2.16	6.69802
2.17	6.6773
2.18	6.69144
2.19	6.67697
2.2	6.67302
2.21	6.65986
2.22	6.65197
2.23	6.64966
2.24	6.64966
2.25	6.6444
2.26	6.64769
2.27	6.63256
2.28	6.63223
2.29	6.63223
2.3	6.6171
2.31	6.59605
2.32	6.59473
2.33	6.5921
2.34	6.59177
2.35	6.59012
2.36	6.58782
2.37	6.58354
2.38	6.56973
2.39	6.56874
2.4	6.56183
2.41	6.55065
2.42	6.54703
2.43	6.55131
2.44	6.55098
2.45	6.54407
2.46	6.52894
2.47	6.52335
2.48	6.51808
2.49	6.5194
2.5	6.49834
2.51	6.49275
2.52	6.4842
2.53	6.49012
2.54	6.48091
2.55	6.49012
2.56	6.47992
2.57	6.46348
2.58	6.46742
2.59	6.45295
2.6	6.43519
2.61	6.43157
2.62	6.43124
2.63	6.43979
2.64	6.42894
2.65	6.43288
2.66	6.41874
2.67	6.40722
2.68	6.39571
2.69	6.38847
2.7	6.3865
2.71	6.38485
2.72	6.37992
2.73	6.37268
2.74	6.3615
2.75	6.3536
2.76	6.34702
2.77	6.34045
2.78	6.34571
2.79	6.33749
2.8	6.33617
2.81	6.33189
2.82	6.32992
2.83	6.32663
2.84	6.31446
2.85	6.31545
2.86	6.31018
2.87	6.29176
2.88	6.2911
2.89	6.29472
2.9	6.28551
2.91	6.26479
2.92	6.27433
2.93	6.26577
2.94	6.26347
2.95	6.26183
2.96	6.25064
2.97	6.2513
2.98	6.24669
2.99	6.23255
3	6.22827
3.01	6.21511
3.02	6.22202
3.03	6.22202
3.04	6.22827
3.05	6.20623
3.06	6.20031
3.07	6.19669
3.08	6.19307
3.09	6.19439
3.1	6.18847
3.11	6.1832
3.12	6.1707
3.13	6.16807
3.14	6.16149
3.15	6.16873
3.16	6.15524
3.17	6.14702
3.18	6.1388
3.19	6.14834
3.2	6.14011
3.21	6.13057
3.22	6.10919
3.23	6.10689
3.24	6.11807
3.25	6.10689
3.26	6.09373
3.27	6.08978
3.28	6.08847
3.29	6.07958
3.3	6.06017
3.31	6.07037
3.32	6.08189
3.33	6.06478
3.34	6.06412
3.35	6.04965
3.36	6.04011
3.37	6.03057
3.38	6.02761
3.39	6.02859
3.4	6.02629
3.41	6.02695
3.42	6.01642
3.43	6.00392
3.44	6.00261
3.45	5.9934
3.46	5.99833
3.47	5.99274
3.48	5.9832
3.49	5.97004
3.5	5.97465
3.51	5.96807
3.52	5.95524
3.53	5.948
3.54	5.93912
3.55	5.94866
3.56	5.94076
3.57	5.93714
3.58	5.94274
3.59	5.94701
3.6	5.91971
3.61	5.92004
3.62	5.91017
3.63	5.93024
3.64	5.90524
3.65	5.90228
3.66	5.90359
3.67	5.89372
3.68	5.88846
3.69	5.88056
3.7	5.87596
3.71	5.87464
3.72	5.8776
3.73	5.8707
3.74	5.86247
3.75	5.85655
3.76	5.84372
3.77	5.8401
3.78	5.83747
3.79	5.83056
3.8	5.83056
3.81	5.82958
3.82	5.83056
3.83	5.83517
3.84	5.81609
3.85	5.80326
3.86	5.80918
3.87	5.80523
3.88	5.79504
3.89	5.78254
3.9	5.7878
3.91	5.78056
3.92	5.77234
3.93	5.76905
3.94	5.75457
3.95	5.75424
3.96	5.7549
3.97	5.7549
3.98	5.74174
3.99	5.73944
4	5.72431
4.01	5.73056
4.02	5.73352
4.03	5.71839
4.04	5.71641
4.05	5.70424
4.06	5.7072
4.07	5.69174
4.08	5.70194
4.09	5.68549
4.1	5.68155
4.11	5.67497
4.12	5.68253
4.13	5.66806
4.14	5.66872
4.15	5.66148
4.16	5.66312
4.17	5.65819
4.18	5.65786
4.19	5.6447
4.2	5.64602
4.21	5.64075
4.22	5.63516
4.23	5.62727
4.24	5.622
4.25	5.62266
4.26	5.62168
4.27	5.62332
4.28	5.61773
4.29	5.60062
4.3	5.60194
4.31	5.6072
4.32	5.59964
4.33	5.58056
4.34	5.58516
4.35	5.57858
4.36	5.57134
4.37	5.56773
4.38	5.56246
4.39	5.56477
4.4	5.56411
4.41	5.56016
4.42	5.547
4.43	5.5447
4.44	5.55194
4.45	5.54865
4.46	5.5243
4.47	5.52924
4.48	5.53549
4.49	5.51871
4.5	5.50851
4.51	5.51115
4.52	5.51312
4.53	5.50621
4.54	5.49503
4.55	5.50325
4.56	5.50424
4.57	5.49075
4.58	5.49075
4.59	5.48055
4.6	5.46378
4.61	5.4641
4.62	5.46443
4.63	5.47101
4.64	5.46772
4.65	5.45522
4.66	5.44733
4.67	5.44963
4.68	5.44174
4.69	5.44108
4.7	5.43581
4.71	5.422
4.72	5.42529
4.73	5.42693
4.74	5.42364
4.75	5.4266
4.76	5.41871
4.77	5.41641
4.78	5.40423
4.79	5.39239
4.8	5.40029
4.81	5.38713
4.82	5.38647
4.83	5.38187
4.84	5.38417
4.85	5.37693
4.86	5.38219
4.87	5.37627
4.88	5.36311
4.89	5.35719
4.9	5.35358
4.91	5.34831
4.92	5.35061
4.93	5.34732
4.94	5.34436
4.95	5.3493
4.96	5.33746
4.97	5.32726
4.98	5.32726
4.99	5.32825
5	5.32232
5.01	5.3243
5.02	5.30982
5.03	5.30917
5.04	5.30522
5.05	5.29601
5.06	5.2789
5.07	5.28351
5.08	5.28482
5.09	5.28581
5.1	5.28384
5.11	5.27627
5.12	5.27397
5.13	5.2766
5.14	5.2743
5.15	5.26574
5.16	5.26969
5.17	5.26377
5.18	5.26245
5.19	5.25489
5.2	5.24239
5.21	5.23515
5.22	5.22956
5.23	5.23416
5.24	5.24337
5.25	5.2266
5.26	5.22101
5.27	5.22331
5.28	5.22199
5.29	5.22068
5.3	5.22035
5.31	5.20818
5.32	5.20127
5.33	5.2039
5.34	5.20193
5.35	5.19535
5.36	5.19074
5.37	5.19535
5.38	5.1766
5.39	5.18745
5.4	5.17627
5.41	5.17693
5.42	5.16771
5.43	5.16607
5.44	5.16212
5.45	5.15916
5.46	5.14567
5.47	5.16114
5.48	5.15587
5.49	5.14831
5.5	5.14173
5.51	5.13646
5.52	5.14502
5.53	5.14008
5.54	5.14271
5.55	5.12725
5.56	5.11969
5.57	5.12034
5.58	5.12298
5.59	5.11969
5.6	5.11311
5.61	5.10258
5.62	5.11146
5.63	5.10653
5.64	5.09863
5.65	5.09765
5.66	5.096
5.67	5.09469
5.68	5.10291
5.69	5.07922
5.7	5.06837
5.71	5.07594
5.72	5.06672
5.73	5.06804
5.74	5.06672
5.75	5.06047
5.76	5.05587
5.77	5.0483
5.78	5.06047
5.79	5.0539
5.8	5.04501
5.81	5.04304
5.82	5.04633
5.83	5.03547
5.84	5.03679
5.85	5.0256
5.86	5.02232
5.87	5.01705
5.88	5.03876
5.89	5.02396
5.9	5.01935
5.91	5.01475
5.92	5.00949
5.93	5.0085
5.94	5.00751
5.95	4.99962
5.96	4.99863
5.97	4.98449
5.98	4.98777
5.99	4.99106
6	4.99074
6.01	4.9812
6.02	4.9858
6.03	4.98416
6.04	4.97495
6.05	4.97034
6.06	4.97297
6.07	4.97396
6.08	4.97133
6.09	4.96606
6.1	4.96244
6.11	4.96277
6.12	4.96179
6.13	4.94665
6.14	4.95652
6.15	4.94271
6.16	4.94369
6.17	4.94205
6.18	4.94106
6.19	4.9335
6.2	4.93777
6.21	4.92461
6.22	4.92955
6.23	4.93021
6.24	4.92165
6.25	4.92692
6.26	4.92264
6.27	4.89994
6.28	4.90817
6.29	4.91442
6.3	4.91442
6.31	4.91277
6.32	4.9006
6.33	4.90159
6.34	4.90422
6.35	4.89534
6.36	4.88481
6.37	4.89106
6.38	4.88711
6.39	4.86771
6.4	4.87494
6.41	4.86771
6.42	4.87889
6.43	4.86178
6.44	4.87297
6.45	4.86145
6.46	4.85948
6.47	4.87001
6.48	4.86047
6.49	4.85817
6.5	4.85224
6.51	4.85455
6.52	4.8529
6.53	4.84336
6.54	4.84863
6.55	4.83777
6.56	4.84336
6.57	4.8381
6.58	4.8427
6.59	4.83284
6.6	4.82955
6.61	4.83678
6.62	4.83086
6.63	4.83613
6.64	4.82988
6.65	4.81474
6.66	4.80915
6.67	4.81014
6.68	4.81639
6.69	4.80257
6.7	4.81343
6.71	4.80389
6.72	4.78481
6.73	4.78415
6.74	4.79402
6.75	4.80224
6.76	4.79994
6.77	4.79435
6.78	4.79632
6.79	4.79106
6.8	4.78382
6.81	4.78152
6.82	4.77132
6.83	4.77264
6.84	4.77264
6.85	4.77297
6.86	4.76606
6.87	4.76737
6.88	4.75849
6.89	4.74961
6.9	4.75257
6.91	4.75586
6.92	4.75849
6.93	4.74665
6.94	4.74632
6.95	4.74237
6.96	4.74961
6.97	4.74632
6.98	4.73448
6.99	4.73974
7	4.73546
7.01	4.71869
7.02	4.71474
7.03	4.71573
7.04	4.72461
7.05	4.72428
7.06	4.72033
7.07	4.7154
7.08	4.71013
7.09	4.70454
7.1	4.70849
7.11	4.71178
7.12	4.70586
7.13	4.70125
7.14	4.70388
7.15	4.70882
7.16	4.70684
7.17	4.70915
7.18	4.695
7.19	4.6904
7.2	4.69007
7.21	4.68678
7.22	4.67823
7.23	4.68579
7.24	4.68184
7.25	4.68283
7.26	4.67461
7.27	4.67527
7.28	4.68217
7.29	4.66934
7.3	4.66836
7.31	4.67
7.32	4.65717
7.33	4.66408
7.34	4.6529
7.35	4.64796
7.36	4.65586
7.37	4.64763
7.38	4.64434
7.39	4.63974
7.4	4.64303
7.41	4.64237
7.42	4.64994
7.43	4.63151
7.44	4.63743
7.45	4.64895
7.46	4.64599
7.47	4.63842
7.48	4.63711
7.49	4.62329
7.5	4.62099
7.51	4.61704
7.52	4.62658
7.53	4.62329
7.54	4.61868
7.55	4.61934
7.56	4.6075
7.57	4.61079
7.58	4.60289
7.59	4.60816
7.6	4.60618
7.61	4.60684
7.62	4.61638
7.63	4.59204
7.64	4.59796
7.65	4.59697
7.66	4.59467
7.67	4.59138
7.68	4.59237
7.69	4.58875
7.7	4.59105
7.71	4.58612
7.72	4.57329
7.73	4.57987
7.74	4.58118
7.75	4.57362
7.76	4.57066
7.77	4.56868
7.78	4.57625
7.79	4.5871
7.8	4.57033
7.81	4.5825
7.82	4.57658
7.83	4.57362
7.84	4.56474
7.85	4.57
7.86	4.56802
7.87	4.56408
7.88	4.55158
7.89	4.56375
7.9	4.55717
7.91	4.55388
7.92	4.54862
7.93	4.55914
7.94	4.55454
7.95	4.5473
7.96	4.54138
7.97	4.54368
7.98	4.54697
7.99	4.54763
8	4.54598
8.01	4.54697
8.02	4.5427
8.03	4.52658
8.04	4.54105
8.05	4.53644
8.06	4.52723
8.07	4.54105
8.08	4.52296
8.09	4.53513
8.1	4.53644
8.11	4.5121
8.12	4.51868
8.13	4.53677
8.14	4.51934
8.15	4.52329
8.16	4.51671
8.17	4.52
8.18	4.51276
8.19	4.50289
8.2	4.50421
8.21	4.51013
8.22	4.51638
8.23	4.51046
8.24	4.51638
8.25	4.51638
8.26	4.50223
8.27	4.49993
8.28	4.49039
8.29	4.48579
8.3	4.48973
8.31	4.49664
8.32	4.49105
8.33	4.48875
8.34	4.495
8.35	4.47789
8.36	4.48019
8.37	4.48776
8.38	4.48677
8.39	4.48677
8.4	4.47789
8.41	4.48184
8.42	4.47756
8.43	4.46967
8.44	4.47164
8.45	4.47789
8.46	4.48184
8.47	4.47197
8.48	4.4644
8.49	4.4746
8.5	4.47394
8.51	4.47197
8.52	4.46835
8.53	4.45322
8.54	4.45256
8.55	4.45585
8.56	4.45026
8.57	4.45519
8.58	4.44401
8.59	4.45223
8.6	4.44664
8.61	4.45289
8.62	4.45585
8.63	4.45421
8.64	4.45421
8.65	4.45092
8.66	4.44072
8.67	4.4473
8.68	4.4473
8.69	4.44269
8.7	4.43677
8.71	4.42559
8.72	4.43414
8.73	4.43151
8.74	4.43447
8.75	4.42986
8.76	4.42065
8.77	4.4223
8.78	4.42098
8.79	4.42263
8.8	4.42624
8.81	4.42888
8.82	4.42756
8.83	4.42822
8.84	4.42592
8.85	4.42131
8.86	4.41638
8.87	4.40716
8.88	4.40749
8.89	4.4144
8.9	4.4223
8.91	4.4167
8.92	4.39993
8.93	4.40091
8.94	4.40716
8.95	4.40782
8.96	4.41539
8.97	4.4019
8.98	4.40815
8.99	4.3996
9	4.39697
9.01	4.39072
9.02	4.3973
9.03	4.40157
9.04	4.39269
9.05	4.39631
9.06	4.39993
9.07	4.40519
9.08	4.39236
9.09	4.39039
9.1	4.38841
9.11	4.39006
9.12	4.38776
9.13	4.38743
9.14	4.39861
9.15	4.38611
9.16	4.37756
9.17	4.37657
9.18	4.38118
9.19	4.38216
9.2	4.37427
9.21	4.37394
9.22	4.37493
9.23	4.37624
9.24	4.36999
9.25	4.37624
9.26	4.36177
9.27	4.37493
9.28	4.3644
9.29	4.35716
9.3	4.35683
9.31	4.35979
9.32	4.36308
9.33	4.36045
9.34	4.35025
9.35	4.34861
9.36	4.35058
9.37	4.35881
9.38	4.35322
9.39	4.35058
9.4	4.36111
9.41	4.3519
9.42	4.33973
9.43	4.33841
9.44	4.34828
9.45	4.34039
9.46	4.34466
9.47	4.35782
9.48	4.35091
9.49	4.34598
9.5	4.33414
9.51	4.34697
9.52	4.34795
9.53	4.33611
9.54	4.34269
9.55	4.33315
9.56	4.33578
9.57	4.33479
9.58	4.34433
9.59	4.34236
9.6	4.33775
9.61	4.33775
9.62	4.34104
9.63	4.3417
9.64	4.34269
9.65	4.33479
9.66	4.32394
9.67	4.31802
9.68	4.3292
9.69	4.32624
9.7	4.3269
9.71	4.32295
9.72	4.32854
9.73	4.32789
9.74	4.31966
9.75	4.32657
9.76	4.32295
9.77	4.319
9.78	4.31637
9.79	4.32065
9.8	4.31374
9.81	4.31835
9.82	4.31473
9.83	4.30979
9.84	4.32032
9.85	4.32361
9.86	4.30848
9.87	4.3065
9.88	4.31012
9.89	4.29795
9.9	4.30979
9.91	4.30387
9.92	4.30387
9.93	4.30223
9.94	4.30288
9.95	4.30782
9.96	4.29663
9.97	4.29762
9.98	4.30519
9.99	4.30552
10	4.29795
10.01	4.29894
10.02	4.29433
10.03	4.29762
10.04	4.2917
10.05	4.29236
10.06	4.29598
10.07	4.29203
10.08	4.29367
10.09	4.29466
10.1	4.30157
10.11	4.29598
10.12	4.30091
10.13	4.28841
10.14	4.28973
10.15	4.28512
10.16	4.28611
10.17	4.28545
10.18	4.28611
10.19	4.28874
10.2	4.28216
10.21	4.28512
10.22	4.2815
10.23	4.28052
10.24	4.28479
10.25	4.28611
10.26	4.27756
10.27	4.28216
10.28	4.28183
10.29	4.28249
10.3	4.27986
10.31	4.2769
10.32	4.27657
10.33	4.28479
10.34	4.28249
10.35	4.27492
10.36	4.26374
10.37	4.27065
10.38	4.27756
10.39	4.27624
10.4	4.26637
10.41	4.27262
10.42	4.26802
10.43	4.27492
10.44	4.26703
10.45	4.26571
10.46	4.26374
10.47	4.25749
10.48	4.26637
10.49	4.25946
10.5	4.26078
10.51	4.25453
10.52	4.26703
10.53	4.25387
10.54	4.25519
10.55	4.26769
10.56	4.26802
10.57	4.26209
10.58	4.24959
10.59	4.2417
10.6	4.24959
10.61	4.25749
10.62	4.25979
10.63	4.25321
10.64	4.25058
10.65	4.25683
10.66	4.2542
10.67	4.25058
10.68	4.2394
10.69	4.24532
10.7	4.24762
10.71	4.23775
10.72	4.24203
10.73	4.24828
10.74	4.25288
10.75	4.24005
10.76	4.23775
10.77	4.24959
10.78	4.24236
10.79	4.25617
10.8	4.24499
10.81	4.23973
10.82	4.23874
10.83	4.23907
10.84	4.23973
10.85	4.23874
10.86	4.23709
10.87	4.24071
10.88	4.23347
10.89	4.23019
10.9	4.23216
10.91	4.23282
10.92	4.23611
10.93	4.22788
10.94	4.22887
10.95	4.22788
10.96	4.23611
10.97	4.24236
10.98	4.23446
10.99	4.21966
11	4.22492
11.01	4.23512
11.02	4.22361
11.03	4.22525
11.04	4.22262
11.05	4.22328
11.06	4.2315
11.07	4.21736
11.08	4.22196
11.09	4.21703
11.1	4.22328
11.11	4.2213
11.12	4.22097
11.13	4.21341
11.14	4.22328
11.15	4.21637
11.16	4.21341
11.17	4.21505
11.18	4.22492
11.19	4.22262
11.2	4.22328
11.21	4.22525
11.22	4.21801
11.23	4.22032
11.24	4.219
11.25	4.21604
11.26	4.219
11.27	4.21045
11.28	4.2144
11.29	4.21012
11.3	4.20946
11.31	4.20749
11.32	4.20255
11.33	4.19762
11.34	4.20683
11.35	4.20617
11.36	4.21176
11.37	4.21538
11.38	4.21242
11.39	4.2065
11.4	4.19861
11.41	4.20584
11.42	4.21703
11.43	4.21209
11.44	4.20255
11.45	4.20979
11.46	4.21703
11.47	4.19828
11.48	4.19861
11.49	4.19992
11.5	4.19597
11.51	4.2042
11.52	4.20222
11.53	4.20551
11.54	4.20584
11.55	4.19137
11.56	4.194
11.57	4.19137
11.58	4.19959
11.59	4.19532
11.6	4.1861
11.61	4.1838
11.62	4.18709
11.63	4.19071
11.64	4.1917
11.65	4.18874
11.66	4.1917
11.67	4.18249
11.68	4.1838
11.69	4.19104
11.7	4.18183
11.71	4.18282
11.72	4.17854
11.73	4.17525
11.74	4.19334
11.75	4.18939
11.76	4.18446
11.77	4.18084
11.78	4.1917
11.79	4.17525
11.8	4.18018
11.81	4.19005
11.82	4.19597
11.83	4.18676
11.84	4.18676
11.85	4.18545
11.86	4.18347
11.87	4.18216
11.88	4.18709
11.89	4.1792
11.9	4.18183
11.91	4.18051
11.92	4.17558
11.93	4.17985
11.94	4.18117
11.95	4.1838
11.96	4.18545
11.97	4.18018
11.98	4.18578
11.99	4.17591
12	4.18578
12.01	4.1792
12.02	4.18413
12.03	4.18643
12.04	4.17887
12.05	4.18643
12.06	4.18413
12.07	4.18216
12.08	4.18413
12.09	4.1861
12.1	4.16768
12.11	4.18117
12.12	4.17887
12.13	4.17262
12.14	4.17229
12.15	4.17591
12.16	4.17492
12.17	4.1713
12.18	4.17426
12.19	4.17591
12.2	4.17328
12.21	4.16637
12.22	4.1736
12.23	4.18249
12.24	4.15781
12.25	4.16406
12.26	4.1713
12.27	4.16472
12.28	4.16045
12.29	4.16242
12.3	4.16604
12.31	4.16341
12.32	4.16209
12.33	4.15913
12.34	4.1542
12.35	4.16341
12.36	4.16242
12.37	4.1667
12.38	4.15913
12.39	4.15584
12.4	4.16012
12.41	4.16143
12.42	4.16735
12.43	4.15781
12.44	4.15518
12.45	4.15781
12.46	4.1611
12.47	4.16604
12.48	4.16012
12.49	4.14893
12.5	4.15124
12.51	4.14696
12.52	4.15617
12.53	4.16439
12.54	4.16275
12.55	4.14992
12.56	4.15222
12.57	4.16538
12.58	4.16505
12.59	4.14597
12.6	4.13841
12.61	4.13676
12.62	4.15288
12.63	4.15716
12.64	4.1542
12.65	4.15222
12.66	4.16078
12.67	4.15518
12.68	4.14466
12.69	4.14367
12.7	4.15124
12.71	4.14433
12.72	4.14466
12.73	4.14531
12.74	4.14762
12.75	4.14696
12.76	4.15716
12.77	4.16472
12.78	4.14433
12.79	4.13775
12.8	4.14367
12.81	4.14597
12.82	4.15749
12.83	4.14564
12.84	4.13841
12.85	4.15025
12.86	4.15255
12.87	4.14696
12.88	4.14235
12.89	4.15354
12.9	4.14893
12.91	4.144
12.92	4.13577
12.93	4.144
12.94	4.14795
12.95	4.13972
12.96	4.14729
12.97	4.13972
12.98	4.1417
12.99	4.13939
13	4.14038
13.01	4.14334
13.02	4.14268
13.03	4.14564
13.04	4.14235
13.05	4.13709
13.06	4.12952
13.07	4.13413
13.08	4.14531
13.09	4.13643
13.1	4.1292
13.11	4.12459
13.12	4.12295
13.13	4.12623
13.14	4.13018
13.15	4.12952
13.16	4.13051
13.17	4.12821
13.18	4.12459
13.19	4.12656
13.2	4.12887
13.21	4.1315
13.22	4.13314
13.23	4.12821
13.24	4.12985
13.25	4.13216
13.26	4.12755
13.27	4.13018
13.28	4.1361
13.29	4.12788
13.3	4.12788
13.31	4.12788
13.32	4.12887
13.33	4.12525
13.34	4.11406
13.35	4.11275
13.36	4.11702
13.37	4.12952
13.38	4.12952
13.39	4.1315
13.4	4.12952
13.41	4.12393
13.42	4.13281
13.43	4.13314
13.44	4.12854
13.45	4.11768
13.46	4.12525
13.47	4.12492
13.48	4.12295
13.49	4.1315
13.5	4.12459
13.51	4.12295
13.52	4.12689
13.53	4.12393
13.54	4.12064
13.55	4.12558
13.56	4.12558
13.57	4.11571
13.58	4.11933
13.59	4.11308
13.6	4.11933
13.61	4.11604
13.62	4.13216
13.63	4.12459
13.64	4.10847
13.65	4.11176
13.66	4.12854
13.67	4.11669
13.68	4.11834
13.69	4.11044
13.7	4.11966
13.71	4.11637
13.72	4.11077
13.73	4.11143
13.74	4.11406
13.75	4.11406
13.76	4.11735
