"BIO-KINE ASCII FILE"
"_COMMENT"	"MOS-500 Spectrometer"
"_COMMENT"	"Kinetics measurement"
"_COMMENT"	"Y Unit : Volt,  X Unit : s"
"_COMMENT"	"Excitation wavelength : 380 nm"
"_COMMENT"	"Fentes bandwidth =  1 nm"
"_COMMENT"	"HV= 1000V"
"_COMMENT"	"Timebase  1 =  .01 s   5001 pts"
"_SFM"	"SFM-400 /S  Advanced mode"
"_SFM"	"Ratio : S1: 2.5, S2: 0, S3: 0, S4: 1"
"_SFM"	"Content : S1: , S2: , S3: , S4:"
"_SFM"	"Concentration : S1: , S2: , S3: , S4:"
"_SFM"	"Total volume : 209 µl  Flow : 3.5 mL/s"
"_SFM"	"Acquisition start :  10 ms before stop"
"_SFM"	"cuve=FC-15, s1=10 ml , s2=10 ml , s3=10 ml , s4=1.9 ml"
"_UNITX"	"s"
"_UNITY"	"Volt"
"_DELTAX"	0
"_DATA"
1e-300	7.03191
0.01	7.42436
0.02	7.65726
0.03	7.82173
0.04	7.83785
0.05	7.85759
0.06	7.88687
0.07	7.94641
0.08	8.02437
0.09	7.99773
0.1	8.0224
0.11	8.06319
0.12	7.96647
0.13	7.97898
0.14	7.91582
0.15	7.93226
0.16	8.04411
0.17	7.98654
0.18	7.95562
0.19	7.95694
0.2	8.03654
0.21	8.01352
0.22	7.99674
0.23	7.99246
0.24	8.02437
0.25	8.04049
0.26	7.97963
0.27	7.98095
0.28	7.98062
0.29	7.96944
0.3	7.95266
0.31	7.98851
0.32	7.98983
0.33	7.9293
0.34	7.91286
0.35	7.94641
0.36	7.99509
0.37	7.9918
0.38	7.95167
0.39	7.91154
0.4	7.95036
0.41	7.94213
0.42	7.95397
0.43	7.95858
0.44	7.95266
0.45	7.99444
0.46	7.9349
0.47	7.90628
0.48	7.93917
0.49	7.9168
0.5	7.92766
0.51	7.90628
0.52	7.9043
0.53	7.92272
0.54	7.90562
0.55	7.90595
0.56	7.87272
0.57	7.89476
0.58	7.92371
0.59	7.90957
0.6	7.89082
0.61	7.90562
0.62	7.84213
0.63	7.89575
0.64	7.89542
0.65	7.85496
0.66	7.88424
0.67	7.85002
0.68	7.82305
0.69	7.87338
0.7	7.90463
0.71	7.87963
0.72	7.85233
0.73	7.86943
0.74	7.89345
0.75	7.8645
0.76	7.8872
0.77	7.75858
0.78	7.81943
0.79	7.83687
0.8	7.82206
0.81	7.85331
0.82	7.84706
0.83	7.89772
0.84	7.81154
0.85	7.75496
0.86	7.8145
0.87	7.82437
0.88	7.82535
0.89	7.80101
0.9	7.88193
0.91	7.84476
0.92	7.777
0.93	7.78029
0.94	7.7668
0.95	7.82733
0.96	7.7645
0.97	7.77305
0.98	7.79246
0.99	7.7339
1	7.76483
1.01	7.74739
1.02	7.72403
1.03	7.81581
1.04	7.78687
1.05	7.75759
1.06	7.75858
1.07	7.81022
1.08	7.78127
1.09	7.80134
1.1	7.78785
1.11	7.74279
1.12	7.71219
1.13	7.75463
1.14	7.71055
1.15	7.72469
1.16	7.73917
1.17	7.68588
1.18	7.71811
1.19	7.72075
1.2	7.71844
1.21	7.72042
1.22	7.74114
1.23	7.64114
1.24	7.73752
1.25	7.67305
1.26	7.65166
1.27	7.70956
1.28	7.61712
1.29	7.64903
1.3	7.67305
1.31	7.67338
1.32	7.67469
1.33	7.727
1.34	7.7168
1.35	7.65627
1.36	7.62239
1.37	7.68028
1.38	7.68522
1.39	7.67272
1.4	7.67239
1.41	7.68588
1.42	7.69936
1.43	7.6589
1.44	7.69542
1.45	7.66647
1.46	7.66252
1.47	7.64245
1.48	7.62765
1.49	7.63719
1.5	7.6089
1.51	7.58785
1.52	7.60035
1.53	7.63555
1.54	7.63226
1.55	7.62305
1.56	7.60068
1.57	7.63916
1.58	7.62206
1.59	7.60166
1.6	7.58291
1.61	7.62897
1.62	7.61383
1.63	7.59377
1.64	7.58752
1.65	7.59607
1.66	7.57732
1.67	7.576
1.68	7.49508
1.69	7.54245
1.7	7.52633
1.71	7.53752
1.72	7.53324
1.73	7.56087
1.74	7.53554
1.75	7.52666
1.76	7.54837
1.77	7.56614
1.78	7.49969
1.79	7.48883
1.8	7.48587
1.81	7.5362
1.82	7.49377
1.83	7.53752
1.84	7.50331
1.85	7.51219
1.86	7.55528
1.87	7.50627
1.88	7.52765
1.89	7.53554
1.9	7.49706
1.91	7.46745
1.92	7.45166
1.93	7.48225
1.94	7.51712
1.95	7.47074
1.96	7.48752
1.97	7.41547
1.98	7.45396
1.99	7.46153
2	7.43455
2.01	7.40593
2.02	7.43686
2.03	7.48883
2.04	7.47271
2.05	7.451
2.06	7.47863
2.07	7.48784
2.08	7.45824
2.09	7.43784
2.1	7.47436
2.11	7.45001
2.12	7.44508
2.13	7.42962
2.14	7.41778
2.15	7.41613
2.16	7.44015
2.17	7.45429
2.18	7.44048
2.19	7.42008
2.2	7.40495
2.21	7.45429
2.22	7.42205
2.23	7.401
2.24	7.39278
2.25	7.43587
2.26	7.43357
2.27	7.42304
2.28	7.41054
2.29	7.42666
2.3	7.34047
2.31	7.37337
2.32	7.39409
2.33	7.39968
2.34	7.36482
2.35	7.40528
2.36	7.37139
2.37	7.3385
2.38	7.35067
2.39	7.41613
2.4	7.43126
2.41	7.39311
2.42	7.38751
2.43	7.32402
2.44	7.27731
2.45	7.32896
2.46	7.36745
2.47	7.34146
2.48	7.3362
2.49	7.27666
2.5	7.33488
2.51	7.32435
2.52	7.36449
2.53	7.35593
2.54	7.31218
2.55	7.34014
2.56	7.32731
2.57	7.31514
2.58	7.28488
2.59	7.29508
2.6	7.27073
2.61	7.35166
2.62	7.33587
2.63	7.33587
2.64	7.34672
2.65	7.33159
2.66	7.23126
2.67	7.24869
2.68	7.27698
2.69	7.30725
2.7	7.33718
2.71	7.27633
2.72	7.28554
2.73	7.26415
2.74	7.31909
2.75	7.27633
2.76	7.27896
2.77	7.27962
2.78	7.29475
2.79	7.28916
2.8	7.26942
2.81	7.24738
2.82	7.21152
2.83	7.27271
2.84	7.22764
2.85	7.24771
2.86	7.22764
2.87	7.25593
2.88	7.28422
2.89	7.28323
2.9	7.24738
2.91	7.30396
2.92	7.27337
2.93	7.28619
2.94	7.25133
2.95	7.24113
2.96	7.23948
2.97	7.24606
2.98	7.18356
2.99	7.14014
3	7.20856
3.01	7.23455
3.02	7.2385
3.03	7.18652
3.04	7.1954
3.05	7.19113
3.06	7.18389
3.07	7.22172
3.08	7.18389
3.09	7.17698
3.1	7.21975
3.11	7.20428
3.12	7.19442
3.13	7.17928
3.14	7.1352
3.15	7.17238
3.16	7.17139
3.17	7.14409
3.18	7.15494
3.19	7.1704
3.2	7.1783
3.21	7.16251
3.22	7.18586
3.23	7.21514
3.24	7.17238
3.25	7.15297
3.26	7.1783
3.27	7.14014
3.28	7.11645
3.29	7.09507
3.3	7.08191
3.31	7.09145
3.32	7.09244
3.33	7.13619
3.34	7.19606
3.35	7.10132
3.36	7.12205
3.37	7.05856
3.38	7.12073
3.39	7.10165
3.4	7.11909
3.41	7.11974
3.42	7.1533
3.43	7.14211
3.44	7.06843
3.45	7.11086
3.46	7.10428
3.47	7.12928
3.48	7.16481
3.49	7.12205
3.5	7.08718
3.51	7.10428
3.52	7.12698
3.53	7.12534
3.54	7.08718
3.55	7.10987
3.56	7.0931
3.57	7.0852
3.58	7.05889
3.59	7.10132
3.6	7.1181
3.61	7.0704
3.62	7.07139
3.63	7.08422
3.64	7.06908
3.65	7.01645
3.66	7.01086
3.67	7.04803
3.68	7.0227
3.69	7.07731
3.7	7.05724
3.71	7.07402
3.72	7.00921
3.73	7.00625
3.74	7.02369
3.75	7.05757
3.76	7.03718
3.77	7.04408
3.78	6.97796
3.79	7.05297
3.8	6.99079
3.81	7.00099
3.82	7.05033
3.83	7.02698
3.84	7.02961
3.85	7.04573
3.86	7.06612
3.87	7.03981
3.88	6.9931
3.89	6.99441
3.9	6.98158
3.91	7.02632
3.92	7.01645
3.93	7.03849
3.94	7.00691
3.95	7.02007
3.96	7.00461
3.97	7.01777
3.98	7.02665
3.99	6.98981
4	7.03849
4.01	7.05297
4.02	6.99836
4.03	6.92763
4.04	6.92171
4.05	6.97402
4.06	6.99638
4.07	6.9648
4.08	6.96809
4.09	6.9352
4.1	7.00296
4.11	6.96875
4.12	6.94244
4.13	7.00527
4.14	6.97237
4.15	6.94046
4.16	6.99112
4.17	6.97829
4.18	6.95099
4.19	6.97796
4.2	6.95724
4.21	6.94375
4.22	6.95921
4.23	6.92928
4.24	6.9352
4.25	6.90559
4.26	6.94375
4.27	6.96415
4.28	6.9398
4.29	6.9352
4.3	6.91151
4.31	6.93849
4.32	6.91184
4.33	6.91974
4.34	6.94869
4.35	6.95132
4.36	6.95066
4.37	6.89441
4.38	6.89572
4.39	6.88882
4.4	6.89046
4.41	6.87566
4.42	6.86908
4.43	6.86085
4.44	6.91744
4.45	6.92105
4.46	6.88289
4.47	6.93092
4.48	6.93191
4.49	6.86842
4.5	6.89737
4.51	6.93158
4.52	6.88257
4.53	6.9
4.54	6.86941
4.55	6.91151
4.56	6.85395
4.57	6.86612
4.58	6.89868
4.59	6.92763
4.6	6.87697
4.61	6.86217
4.62	6.92763
4.63	6.84506
4.64	6.8727
4.65	6.85296
4.66	6.87796
4.67	6.89342
4.68	6.86743
4.69	6.8602
4.7	6.88684
4.71	6.83256
4.72	6.83618
4.73	6.82829
4.74	6.86842
4.75	6.88454
4.76	6.83881
4.77	6.86414
4.78	6.85296
4.79	6.85493
4.8	6.8523
4.81	6.83191
4.82	6.87336
4.83	6.83651
4.84	6.84145
4.85	6.85197
4.86	6.79539
4.87	6.7296
4.88	6.82664
4.89	6.79145
4.9	6.82763
4.91	6.83026
4.92	6.80625
4.93	6.8
4.94	6.8375
4.95	6.83224
4.96	6.77862
4.97	6.80691
4.98	6.82302
4.99	6.82533
5	6.79375
5.01	6.79375
5.02	6.78585
5.03	6.81645
5.04	6.80822
5.05	6.7694
5.06	6.73421
5.07	6.77927
5.08	6.77598
5.09	6.80098
5.1	6.80987
5.11	6.77204
5.12	6.77204
5.13	6.7444
5.14	6.78191
5.15	6.80263
5.16	6.73059
5.17	6.7194
5.18	6.74605
5.19	6.74079
5.2	6.73486
5.21	6.71546
5.22	6.78256
5.23	6.77269
5.24	6.72894
5.25	6.79342
5.26	6.68059
5.27	6.72434
5.28	6.74473
5.29	6.72072
5.3	6.7398
5.31	6.76644
5.32	6.70625
5.33	6.73289
5.34	6.75098
5.35	6.71282
5.36	6.72467
5.37	6.74901
5.38	6.74243
5.39	6.75065
5.4	6.70657
5.41	6.69177
5.42	6.65295
5.43	6.72401
5.44	6.70197
5.45	6.76348
5.46	6.70098
5.47	6.725
5.48	6.76283
5.49	6.78191
5.5	6.70986
5.51	6.72796
5.52	6.71611
5.53	6.65263
5.54	6.68059
5.55	6.69671
5.56	6.68881
5.57	6.6694
5.58	6.70888
5.59	6.6944
5.6	6.70361
5.61	6.72927
5.62	6.7398
5.63	6.67335
5.64	6.68256
5.65	6.69901
5.66	6.69144
5.67	6.66249
5.68	6.63124
5.69	6.66874
5.7	6.6546
5.71	6.6796
5.72	6.72861
5.73	6.68059
5.74	6.67598
5.75	6.64144
5.76	6.69177
5.77	6.71085
5.78	6.7421
5.79	6.68782
5.8	6.66545
5.81	6.68355
5.82	6.69802
5.83	6.61348
5.84	6.61315
5.85	6.6546
5.86	6.66776
5.87	6.63716
5.88	6.60822
5.89	6.63256
5.9	6.64769
5.91	6.70263
5.92	6.64045
5.93	6.59045
5.94	6.64045
5.95	6.6148
5.96	6.6319
5.97	6.65855
5.98	6.5796
5.99	6.58651
6	6.61052
6.01	6.63585
6.02	6.6319
6.03	6.62137
6.04	6.67927
6.05	6.61249
6.06	6.63552
6.07	6.58289
6.08	6.62137
6.09	6.6273
6.1	6.60657
6.11	6.63355
6.12	6.5819
6.13	6.59341
6.14	6.6569
6.15	6.63519
6.16	6.62499
6.17	6.60756
6.18	6.59572
6.19	6.62137
6.2	6.6217
6.21	6.56841
6.22	6.57697
6.23	6.60197
6.24	6.58914
6.25	6.61611
6.26	6.61118
6.27	6.57532
6.28	6.61447
6.29	6.63453
6.3	6.56085
6.31	6.59802
6.32	6.55295
6.33	6.58486
6.34	6.55328
6.35	6.62664
6.36	6.58914
6.37	6.58322
6.38	6.51907
6.39	6.60558
6.4	6.52433
6.41	6.5717
6.42	6.59835
6.43	6.59012
6.44	6.61776
6.45	6.59637
6.46	6.55361
6.47	6.5717
6.48	6.58519
6.49	6.59473
6.5	6.57302
6.51	6.57466
6.52	6.58552
6.53	6.58091
6.54	6.55624
6.55	6.55854
6.56	6.57697
6.57	6.53124
6.58	6.57203
6.59	6.51085
6.6	6.59506
6.61	6.55164
6.62	6.51874
6.63	6.50723
6.64	6.53223
6.65	6.54736
6.66	6.5217
6.67	6.5319
6.68	6.5467
6.69	6.50098
6.7	6.54111
6.71	6.5046
6.72	6.50098
6.73	6.55986
6.74	6.54835
6.75	6.52598
6.76	6.48881
6.77	6.51052
6.78	6.52466
6.79	6.52137
6.8	6.48519
6.81	6.52729
6.82	6.50887
6.83	6.53716
6.84	6.52894
6.85	6.48157
6.86	6.55887
6.87	6.53387
6.88	6.54341
6.89	6.5671
6.9	6.49966
6.91	6.51841
6.92	6.45657
6.93	6.46611
6.94	6.49769
6.95	6.51578
6.96	6.52992
6.97	6.49802
6.98	6.4944
6.99	6.45196
7	6.46808
7.01	6.51052
7.02	6.52203
7.03	6.46907
7.04	6.45065
7.05	6.46578
7.06	6.47828
7.07	6.47466
7.08	6.49275
7.09	6.45558
7.1	6.524
7.11	6.49538
7.12	6.53815
7.13	6.5217
7.14	6.50953
7.15	6.48749
7.16	6.48387
7.17	6.48552
7.18	6.4615
7.19	6.49604
7.2	6.4569
7.21	6.46479
7.22	6.49637
7.23	6.49144
7.24	6.48321
7.25	6.47005
7.26	6.4444
7.27	6.43486
7.28	6.46282
7.29	6.47894
7.3	6.49242
7.31	6.5115
7.32	6.50756
7.33	6.50427
7.34	6.47762
7.35	6.43946
7.36	6.46446
7.37	6.47104
7.38	6.4763
7.39	6.47269
7.4	6.41808
7.41	6.39999
7.42	6.41874
7.43	6.44769
7.44	6.40426
7.45	6.42334
7.46	6.44045
7.47	6.42828
7.48	6.41676
7.49	6.47565
7.5	6.40295
7.51	6.45492
7.52	6.449
7.53	6.51578
7.54	6.47861
7.55	6.46051
7.56	6.49111
7.57	6.42992
7.58	6.38979
7.59	6.43551
7.6	6.45295
7.61	6.44308
7.62	6.41808
7.63	6.40295
7.64	6.43979
7.65	6.44275
7.66	6.40591
7.67	6.43847
7.68	6.44242
7.69	6.47071
7.7	6.40657
7.71	6.41216
7.72	6.4217
7.73	6.42499
7.74	6.45788
7.75	6.43749
7.76	6.39275
7.77	6.42038
7.78	6.43387
7.79	6.39012
7.8	6.43749
7.81	6.41413
7.82	6.41479
7.83	6.39999
7.84	6.4569
7.85	6.43025
7.86	6.38387
7.87	6.42071
7.88	6.40525
7.89	6.39143
7.9	6.41545
7.91	6.40591
7.92	6.41808
7.93	6.37104
7.94	6.42828
7.95	6.40821
7.96	6.39242
7.97	6.42071
7.98	6.4115
7.99	6.37663
8	6.38683
8.01	6.42203
8.02	6.40788
8.03	6.37104
8.04	6.43058
8.05	6.424
8.06	6.40459
8.07	6.36512
8.08	6.40755
8.09	6.35196
8.1	6.34966
8.11	6.40624
8.12	6.40097
8.13	6.42729
8.14	6.41841
8.15	6.3865
8.16	6.40854
8.17	6.41775
8.18	6.41216
8.19	6.33683
8.2	6.34571
8.21	6.34308
8.22	6.3536
8.23	6.36117
8.24	6.30623
8.25	6.37301
8.26	6.36939
8.27	6.30788
8.28	6.3615
8.29	6.38387
8.3	6.35262
8.31	6.35426
8.32	6.35656
8.33	6.36939
8.34	6.38091
8.35	6.36939
8.36	6.35656
8.37	6.32202
8.38	6.33518
8.39	6.41051
8.4	6.37795
8.41	6.36907
8.42	6.32498
8.43	6.32762
8.44	6.34571
8.45	6.32038
8.46	6.29571
8.47	6.349
8.48	6.29373
8.49	6.33288
8.5	6.36578
8.51	6.33452
8.52	6.33913
8.53	6.32959
8.54	6.33551
8.55	6.36183
8.56	6.30656
8.57	6.32564
8.58	6.36907
8.59	6.34077
8.6	6.35821
8.61	6.30887
8.62	6.32466
8.63	6.35097
8.64	6.33156
8.65	6.31775
8.66	6.31742
8.67	6.35459
8.68	6.36051
8.69	6.33584
8.7	6.34209
8.71	6.29275
8.72	6.32466
8.73	6.30558
8.74	6.32696
8.75	6.26939
8.76	6.30492
8.77	6.32729
8.78	6.31972
8.79	6.3263
8.8	6.29143
8.81	6.30952
8.82	6.3365
8.83	6.30755
8.84	6.31676
8.85	6.30294
8.86	6.33452
8.87	6.28683
8.88	6.28156
8.89	6.26018
8.9	6.29998
8.91	6.274
8.92	6.28222
8.93	6.26808
8.94	6.30591
8.95	6.33946
8.96	6.26906
8.97	6.29044
8.98	6.31051
8.99	6.33814
9	6.26873
9.01	6.29472
9.02	6.30623
9.03	6.274
9.04	6.28979
9.05	6.28255
9.06	6.29242
9.07	6.28946
9.08	6.2888
9.09	6.27762
9.1	6.27498
9.11	6.28419
9.12	6.26281
9.13	6.29538
9.14	6.28814
9.15	6.28485
9.16	6.29406
9.17	6.31775
9.18	6.28452
9.19	6.29604
9.2	6.26906
9.21	6.27301
9.22	6.2434
9.23	6.25097
9.24	6.24932
9.25	6.24669
9.26	6.24571
9.27	6.26281
9.28	6.27301
9.29	6.26577
9.3	6.29275
9.31	6.28058
9.32	6.24307
9.33	6.20196
9.34	6.24373
9.35	6.29768
9.36	6.30887
9.37	6.29735
9.38	6.25755
9.39	6.25031
9.4	6.28222
9.41	6.28781
9.42	6.22597
9.43	6.25492
9.44	6.26347
9.45	6.24275
9.46	6.23123
9.47	6.21413
9.48	6.27268
9.49	6.26775
9.5	6.249
9.51	6.21117
9.52	6.24472
9.53	6.23946
9.54	6.26544
9.55	6.21051
9.56	6.18847
9.57	6.23156
9.58	6.19603
9.59	6.22202
9.6	6.23321
9.61	6.22696
9.62	6.20196
9.63	6.22202
9.64	6.20623
9.65	6.21643
9.66	6.19044
9.67	6.22926
9.68	6.24176
9.69	6.26577
9.7	6.25886
9.71	6.22301
9.72	6.20492
9.73	6.2263
9.74	6.19965
9.75	6.19439
9.76	6.21742
9.77	6.16248
9.78	6.20689
9.79	6.20821
9.8	6.20426
9.81	6.18649
9.82	6.22367
9.83	6.20722
9.84	6.18551
9.85	6.19373
9.86	6.18847
9.87	6.19899
9.88	6.18419
9.89	6.21906
9.9	6.19439
9.91	6.23682
9.92	6.20985
9.93	6.24242
9.94	6.2411
9.95	6.19636
9.96	6.17498
9.97	6.17169
9.98	6.2365
9.99	6.21314
10	6.2059
10.01	6.19636
10.02	6.24373
10.03	6.19867
10.04	6.22926
10.05	6.17992
10.06	6.16215
10.07	6.16018
10.08	6.17334
10.09	6.19274
10.1	6.14176
10.11	6.20952
10.12	6.18847
10.13	6.2559
10.14	6.20492
10.15	6.23222
10.16	6.17992
10.17	6.17827
10.18	6.17959
10.19	6.14702
10.2	6.13156
10.21	6.16643
10.22	6.17268
10.23	6.1934
10.24	6.22728
10.25	6.21873
10.26	6.19077
10.27	6.14241
10.28	6.18485
10.29	6.15623
10.3	6.18024
10.31	6.16676
10.32	6.13156
10.33	6.20886
10.34	6.17103
10.35	6.14274
10.36	6.17268
10.37	6.21939
10.38	6.1888
10.39	6.18781
10.4	6.17794
10.41	6.17728
10.42	6.13419
10.43	6.13485
10.44	6.23222
10.45	6.17268
10.46	6.18715
10.47	6.21446
10.48	6.16741
10.49	6.2036
10.5	6.16511
10.51	6.1786
10.52	6.20064
10.53	6.23353
10.54	6.1911
10.55	6.16511
10.56	6.20952
10.57	6.23321
10.58	6.1786
10.59	6.14208
10.6	6.1957
10.61	6.22103
10.62	6.20952
10.63	6.1388
10.64	6.15886
10.65	6.20985
10.66	6.19702
10.67	6.14176
10.68	6.17169
10.69	6.15228
10.7	6.17959
10.71	6.13452
10.72	6.1559
10.73	6.14406
10.74	6.16478
10.75	6.17827
10.76	6.14143
10.77	6.12004
10.78	6.1434
10.79	6.1388
10.8	6.18024
10.81	6.17959
10.82	6.12991
10.83	6.13649
10.84	6.1513
10.85	6.18189
10.86	6.17761
10.87	6.1332
10.88	6.15952
10.89	6.18551
10.9	6.14439
10.91	6.16807
10.92	6.12399
10.93	6.11314
10.94	6.13814
10.95	6.19603
10.96	6.16413
10.97	6.17399
10.98	6.16116
10.99	6.1809
11	6.15327
11.01	6.15853
11.02	6.1559
11.03	6.17399
11.04	6.14505
11.05	6.1513
11.06	6.11215
11.07	6.16248
11.08	6.17103
11.09	6.12235
11.1	6.10853
11.11	6.13781
11.12	6.11807
11.13	6.14274
11.14	6.09472
11.15	6.1082
11.16	6.08485
11.17	6.11643
11.18	6.14439
11.19	6.15985
11.2	6.11149
11.21	6.09274
11.22	6.1082
11.23	6.10195
11.24	6.07564
11.25	6.15722
11.26	6.14044
11.27	6.12761
11.28	6.12728
11.29	6.09965
11.3	6.14044
11.31	6.15919
11.32	6.12136
11.33	6.11774
11.34	6.0911
11.35	6.16051
11.36	6.1036
11.37	6.08353
11.38	6.08847
11.39	6.08353
11.4	6.10064
11.41	6.08978
11.42	6.10129
11.43	6.12004
11.44	6.19735
11.45	6.12103
11.46	6.08781
11.47	6.1184
11.48	6.098
11.49	6.12366
11.5	6.12037
11.51	6.12103
11.52	6.09702
11.53	6.09472
11.54	6.13287
11.55	6.06017
11.56	6.13518
11.57	6.13682
11.58	6.10524
11.59	6.07958
11.6	6.0855
11.61	6.08419
11.62	6.09439
11.63	6.13287
11.64	6.12432
11.65	6.1036
11.66	6.12926
11.67	6.07136
11.68	6.05886
11.69	6.07531
11.7	6.11643
11.71	6.09932
11.72	6.08419
11.73	6.07695
11.74	6.11149
11.75	6.1309
11.76	6.17334
11.77	6.06906
11.78	6.08156
11.79	6.12465
11.8	6.11248
11.81	6.10491
11.82	6.11807
11.83	6.0855
11.84	6.10722
11.85	6.09439
11.86	6.12136
11.87	6.07629
11.88	6.08057
11.89	6.08649
11.9	6.0786
11.91	6.07037
11.92	6.08123
11.93	6.09406
11.94	6.09143
11.95	6.08156
11.96	6.0786
11.97	6.0786
11.98	6.13156
11.99	6.09472
12	6.09603
12.01	6.1059
12.02	6.13353
12.03	6.08847
12.04	6.11774
12.05	6.10261
12.06	6.06478
12.07	6.05491
12.08	6.06577
12.09	6.04998
12.1	6.10853
12.11	6.12662
12.12	6.10524
12.13	6.06939
12.14	6.05195
12.15	6.09439
12.16	6.05754
12.17	6.05261
12.18	6.09274
12.19	6.0707
12.2	6.03682
12.21	6.05853
12.22	6.0559
12.23	6.09537
12.24	6.0559
12.25	6.06248
12.26	6.05162
12.27	6.05524
12.28	6.09439
12.29	6.07827
12.3	6.05656
12.31	6.04899
12.32	6.04965
12.33	6.03583
12.34	6.11215
12.35	6.06379
12.36	6.13123
12.37	6.13814
12.38	6.09636
12.39	6.06544
12.4	6.08715
12.41	6.11577
12.42	6.09669
12.43	6.07268
12.44	6.0957
12.45	6.14932
12.46	6.09175
12.47	6.07169
12.48	6.11149
12.49	6.09472
12.5	6.06675
12.51	6.07465
12.52	6.05557
12.53	6.04636
12.54	6.07794
12.55	6.05327
12.56	6.0184
12.57	6.01807
12.58	6.0082
12.59	6.03715
12.6	6.04208
12.61	6.05754
12.62	6.06642
12.63	6.04274
12.64	6.05754
12.65	6.07564
12.66	6.06906
12.67	6.01379
12.68	5.98945
12.69	6.0457
12.7	6.06182
12.71	6.0434
12.72	6.03715
12.73	6.05919
12.74	6.04932
12.75	6.06412
12.76	6.0684
12.77	6.0559
12.78	6.05228
12.79	6.05425
12.8	6.06642
12.81	6.0536
12.82	6.05425
12.83	6.06182
12.84	6.0684
12.85	6.05425
12.86	5.98813
12.87	5.98649
12.88	6.03748
12.89	6.06215
12.9	6.03254
12.91	6.02859
12.92	6.05425
12.93	6.05129
12.94	6.07037
12.95	5.97826
12.96	5.98715
12.97	6.06906
12.98	6.0536
12.99	6.02794
13	6.05096
13.01	6.03846
13.02	6.03978
13.03	6.01412
13.04	6.0661
13.05	6.01807
13.06	6.05261
13.07	6.04208
13.08	6.03813
13.09	6.0309
13.1	6.01873
13.11	6.03781
13.12	6.02366
13.13	6.01281
13.14	6.01741
13.15	6.02432
13.16	6.01149
13.17	5.98155
13.18	6.0207
13.19	5.99767
13.2	6.00491
13.21	5.98715
13.22	6.02267
13.23	6.01938
13.24	5.97366
13.25	5.97399
13.26	6.01741
13.27	5.99998
13.28	6.03715
13.29	6.03583
13.3	5.97432
13.31	5.99734
13.32	6.01313
13.33	6.04077
13.34	5.98813
13.35	6.00688
13.36	5.97728
13.37	5.99899
13.38	5.98616
13.39	6.00096
13.4	5.96313
13.41	6.01971
13.42	6.01938
13.43	6.03188
13.44	6.03221
13.45	6.04044
13.46	6.05096
13.47	6.03386
13.48	6.00327
13.49	6.03221
13.5	6.02136
13.51	6.0184
13.52	6.01675
13.53	6.00524
13.54	5.99866
13.55	5.96083
13.56	6.01708
13.57	6.00425
13.58	6.01675
13.59	6.01642
13.6	6.02399
13.61	6.06182
13.62	6.02465
13.63	6.03813
13.64	6.03057
13.65	6.03748
13.66	6.02728
13.67	5.98813
13.68	5.98879
13.69	6.03156
13.7	5.9957
13.71	5.97037
13.72	6.01149
13.73	6.0207
13.74	5.97892
13.75	5.97037
13.76	5.95326
