"BIO-KINE ASCII FILE"
"_COMMENT"	"MOS-500 Spectrometer"
"_COMMENT"	"Kinetics measurement"
"_COMMENT"	"Y Unit : Volt,  X Unit : s"
"_COMMENT"	"Excitation wavelength : 380 nm"
"_COMMENT"	"Fentes bandwidth =  1 nm"
"_COMMENT"	"HV= 1000V"
"_COMMENT"	"Timebase  1 =  .01 s   5001 pts"
"_SFM"	"SFM-400 /S  Advanced mode"
"_SFM"	"Ratio : S1: 2.5, S2: 0, S3: 0, S4: 1"
"_SFM"	"Content : S1: , S2: , S3: , S4:"
"_SFM"	"Concentration : S1: , S2: , S3: , S4:"
"_SFM"	"Total volume : 209 µl  Flow : 3.5 mL/s"
"_SFM"	"Acquisition start :  10 ms before stop"
"_SFM"	"cuve=FC-15, s1=10 ml , s2=10 ml , s3=10 ml , s4=1.9 ml"
"_UNITX"	"s"
"_UNITY"	"Volt"
"_DELTAX"	0
"_DATA"
1e-300	2.97357
0.01	2.941
0.02	2.96041
0.03	3.02225
0.04	3.06206
0.05	3.10219
0.06	3.18377
0.07	3.17259
0.08	3.18114
0.09	3.17423
0.1	3.16732
0.11	3.20384
0.12	3.18344
0.13	3.2012
0.14	3.2193
0.15	3.22226
0.16	3.19364
0.17	3.20844
0.18	3.20778
0.19	3.19857
0.2	3.22555
0.21	3.2216
0.22	3.20713
0.23	3.19693
0.24	3.25186
0.25	3.26239
0.26	3.20614
0.27	3.24627
0.28	3.23015
0.29	3.25647
0.3	3.24397
0.31	3.24002
0.32	3.23838
0.33	3.20976
0.34	3.23969
0.35	3.23443
0.36	3.2295
0.37	3.21469
0.38	3.22324
0.39	3.24594
0.4	3.22785
0.41	3.21338
0.42	3.21469
0.43	3.24002
0.44	3.22456
0.45	3.21667
0.46	3.23509
0.47	3.21634
0.48	3.24134
0.49	3.25482
0.5	3.21601
0.51	3.21469
0.52	3.22884
0.53	3.21732
0.54	3.2341
0.55	3.25581
0.56	3.23509
0.57	3.2068
0.58	3.26634
0.59	3.27292
0.6	3.24627
0.61	3.22884
0.62	3.22028
0.63	3.23114
0.64	3.2443
0.65	3.22193
0.66	3.2341
0.67	3.26338
0.68	3.23246
0.69	3.23311
0.7	3.23805
0.71	3.21732
0.72	3.20548
0.73	3.22292
0.74	3.20022
0.75	3.22982
0.76	3.23147
0.77	3.23081
0.78	3.19561
0.79	3.19759
0.8	3.17949
0.81	3.20285
0.82	3.2341
0.83	3.22094
0.84	3.22423
0.85	3.23377
0.86	3.20778
0.87	3.22588
0.88	3.17851
0.89	3.18245
0.9	3.19759
0.91	3.17226
0.92	3.16798
0.93	3.19298
0.94	3.20548
0.95	3.22785
0.96	3.20778
0.97	3.18443
0.98	3.18574
0.99	3.19824
1	3.19792
1.01	3.18245
1.02	3.17949
1.03	3.20811
1.04	3.21996
1.05	3.21831
1.06	3.20548
1.07	3.20844
1.08	3.21601
1.09	3.22522
1.1	3.1966
1.11	3.1818
1.12	3.17226
1.13	3.19923
1.14	3.21963
1.15	3.20548
1.16	3.19199
1.17	3.1966
1.18	3.21403
1.19	3.21272
1.2	3.18805
1.21	3.18509
1.22	3.20285
1.23	3.18048
1.24	3.18476
1.25	3.2193
1.26	3.17489
1.27	3.17949
1.28	3.19693
1.29	3.21009
1.3	3.21371
1.31	3.18903
1.32	3.18706
1.33	3.18048
1.34	3.19627
1.35	3.17489
1.36	3.18706
1.37	3.19824
1.38	3.19956
1.39	3.20186
1.4	3.22226
1.41	3.18706
1.42	3.1989
1.43	3.15416
1.44	3.19331
1.45	3.16666
1.46	3.14101
1.47	3.17291
1.48	3.18344
1.49	3.20778
1.5	3.18936
1.51	3.17884
1.52	3.20976
1.53	3.1943
1.54	3.22357
1.55	3.18114
1.56	3.17522
1.57	3.19726
1.58	3.19495
1.59	3.20055
1.6	3.19561
1.61	3.18574
1.62	3.19265
1.63	3.16765
1.64	3.17719
1.65	3.20318
1.66	3.18509
1.67	3.16732
1.68	3.18673
1.69	3.21173
1.7	3.18936
1.71	3.17785
1.72	3.17686
1.73	3.15351
1.74	3.18541
1.75	3.17982
1.76	3.17028
1.77	3.16272
1.78	3.17094
1.79	3.19265
1.8	3.18509
1.81	3.15712
1.82	3.14364
1.83	3.14989
1.84	3.17653
1.85	3.20153
1.86	3.21502
1.87	3.21436
1.88	3.19134
1.89	3.17884
1.9	3.15976
1.91	3.19693
1.92	3.14528
1.93	3.16436
1.94	3.14397
1.95	3.13969
1.96	3.1693
1.97	3.17291
1.98	3.15745
1.99	3.17982
2	3.16568
2.01	3.13147
2.02	3.17489
2.03	3.18476
2.04	3.15548
2.05	3.17818
2.06	3.17587
2.07	3.19101
2.08	3.18509
2.09	3.17785
2.1	3.18311
2.11	3.17982
2.12	3.19726
2.13	3.16074
2.14	3.14265
2.15	3.15976
2.16	3.18903
2.17	3.17851
2.18	3.1762
2.19	3.16041
2.2	3.17851
2.21	3.17357
2.22	3.18344
2.23	3.1716
2.24	3.15351
2.25	3.16502
2.26	3.15219
2.27	3.16206
2.28	3.17818
2.29	3.16469
2.3	3.17193
2.31	3.14758
2.32	3.16699
2.33	3.16699
2.34	3.17686
2.35	3.21107
2.36	3.17916
2.37	3.16272
2.38	3.12949
2.39	3.15449
2.4	3.1693
2.41	3.15976
2.42	3.15285
2.43	3.1387
2.44	3.17949
2.45	3.13607
2.46	3.12587
2.47	3.16272
2.48	3.14462
2.49	3.15844
2.5	3.17259
2.51	3.16765
2.52	3.13969
2.53	3.14331
2.54	3.17291
2.55	3.18443
2.56	3.15351
2.57	3.15383
2.58	3.14528
2.59	3.18081
2.6	3.15811
2.61	3.15712
2.62	3.20186
2.63	3.20548
2.64	3.17752
2.65	3.16601
2.66	3.16074
2.67	3.12522
2.68	3.14101
2.69	3.13541
2.7	3.17884
2.71	3.14166
2.72	3.15548
2.73	3.16173
2.74	3.14199
2.75	3.14166
2.76	3.14101
2.77	3.14857
2.78	3.12094
2.79	3.14791
2.8	3.13114
2.81	3.17587
2.82	3.18311
2.83	3.14397
2.84	3.12686
2.85	3.14989
2.86	3.16831
2.87	3.15219
2.88	3.15383
2.89	3.12357
2.9	3.13377
2.91	3.15581
2.92	3.17982
2.93	3.17127
2.94	3.15252
2.95	3.13936
2.96	3.12719
2.97	3.13508
2.98	3.14133
2.99	3.16601
3	3.16272
3.01	3.16601
3.02	3.16535
3.03	3.14462
3.04	3.13081
3.05	3.1387
3.06	3.13739
3.07	3.14101
3.08	3.10877
3.09	3.13574
3.1	3.12686
3.11	3.15712
3.12	3.14364
3.13	3.14199
3.14	3.1341
3.15	3.11074
3.16	3.11337
3.17	3.12653
3.18	3.12785
3.19	3.15252
3.2	3.14923
3.21	3.1512
3.22	3.12554
3.23	3.14298
3.24	3.15022
3.25	3.15022
3.26	3.14693
3.27	3.09067
3.28	3.08212
3.29	3.12456
3.3	3.13278
3.31	3.09232
3.32	3.14857
3.33	3.1568
3.34	3.14166
3.35	3.11765
3.36	3.13936
3.37	3.12916
3.38	3.10712
3.39	3.15153
3.4	3.15647
3.41	3.13936
3.42	3.12719
3.43	3.14462
3.44	3.10975
3.45	3.08903
3.46	3.1137
3.47	3.14035
3.48	3.1466
3.49	3.11798
3.5	3.14002
3.51	3.11864
3.52	3.16107
3.53	3.09199
3.54	3.10745
3.55	3.1091
3.56	3.10943
3.57	3.12423
3.58	3.13903
3.59	3.12258
3.6	3.12752
3.61	3.14528
3.62	3.13344
3.63	3.13179
3.64	3.13508
3.65	3.13081
3.66	3.13837
3.67	3.1466
3.68	3.10318
3.69	3.11469
3.7	3.14693
3.71	3.1262
3.72	3.14726
3.73	3.11041
3.74	3.08015
3.75	3.10021
3.76	3.13969
3.77	3.15383
3.78	3.09364
3.79	3.10943
3.8	3.09857
3.81	3.09002
3.82	3.13443
3.83	3.13147
3.84	3.16732
3.85	3.12719
3.86	3.12423
3.87	3.16337
3.88	3.13541
3.89	3.12028
3.9	3.0864
3.91	3.09627
3.92	3.12719
3.93	3.15943
3.94	3.13245
3.95	3.11864
3.96	3.14068
3.97	3.13673
3.98	3.10943
3.99	3.10614
4	3.12258
4.01	3.11831
4.02	3.13048
4.03	3.14035
4.04	3.14068
4.05	3.1239
4.06	3.13541
4.07	3.11699
4.08	3.091
4.09	3.10186
4.1	3.11633
4.11	3.12653
4.12	3.11304
4.13	3.12916
4.14	3.11436
4.15	3.08475
4.16	3.10186
4.17	3.11239
4.18	3.11469
4.19	3.10712
4.2	3.11864
4.21	3.12258
4.22	3.09561
4.23	3.10581
4.24	3.11633
4.25	3.15087
4.26	3.12258
4.27	3.11337
4.28	3.1216
4.29	3.10679
4.3	3.12785
4.31	3.08706
4.32	3.10975
4.33	3.14068
4.34	3.11962
4.35	3.09692
4.36	3.11502
4.37	3.11962
4.38	3.08936
4.39	3.09265
4.4	3.08344
4.41	3.12423
4.42	3.08706
4.43	3.08607
4.44	3.09989
4.45	3.11041
4.46	3.12028
4.47	3.14133
4.48	3.11041
4.49	3.11304
4.5	3.09166
4.51	3.06699
4.52	3.05186
4.53	3.0864
4.54	3.10844
4.55	3.11864
4.56	3.12193
4.57	3.09561
4.58	3.10153
4.59	3.09331
4.6	3.10318
4.61	3.09002
4.62	3.09331
4.63	3.08607
4.64	3.07094
4.65	3.0966
4.66	3.09791
4.67	3.08574
4.68	3.08508
4.69	3.10252
4.7	3.10548
4.71	3.091
4.72	3.1012
4.73	3.1285
4.74	3.09166
4.75	3.11929
4.76	3.11173
4.77	3.06929
4.78	3.09035
4.79	3.07225
4.8	3.07719
4.81	3.11436
4.82	3.12719
4.83	3.09758
4.84	3.06469
4.85	3.07752
4.86	3.09956
4.87	3.11041
4.88	3.08212
4.89	3.10581
4.9	3.12423
4.91	3.11107
4.92	3.10186
4.93	3.12357
4.94	3.10515
4.95	3.09396
4.96	3.13048
4.97	3.09166
4.98	3.08048
4.99	3.07916
5	3.08673
5.01	3.08179
5.02	3.07127
5.03	3.08936
5.04	3.10679
5.05	3.09396
5.06	3.09199
5.07	3.08442
5.08	3.10943
5.09	3.11864
5.1	3.11666
5.11	3.0887
5.12	3.08311
5.13	3.09232
5.14	3.07488
5.15	3.07423
5.16	3.066
5.17	3.09166
5.18	3.11304
5.19	3.08706
5.2	3.10877
5.21	3.09199
5.22	3.07883
5.23	3.07324
5.24	3.06567
5.25	3.06534
5.26	3.066
5.27	3.04528
5.28	3.07817
5.29	3.09429
5.3	3.10679
5.31	3.10383
5.32	3.08146
5.33	3.09199
5.34	3.10087
5.35	3.09002
5.36	3.0535
5.37	3.06304
5.38	3.10087
5.39	3.09956
5.4	3.11008
5.41	3.0762
5.42	3.08706
5.43	3.07127
5.44	3.07883
5.45	3.06206
5.46	3.08442
5.47	3.06666
5.48	3.04528
5.49	3.04232
5.5	3.07949
5.51	3.06995
5.52	3.0966
5.53	3.10087
5.54	3.05975
5.55	3.09035
5.56	3.07587
5.57	3.09692
5.58	3.09989
5.59	3.12456
5.6	3.09725
5.61	3.10383
5.62	3.0739
5.63	3.09002
5.64	3.07686
5.65	3.07554
5.66	3.08706
5.67	3.11633
5.68	3.09857
5.69	3.06567
5.7	3.10581
5.71	3.08377
5.72	3.07719
5.73	3.06831
5.74	3.09035
5.75	3.09758
5.76	3.05383
5.77	3.08278
5.78	3.06436
5.79	3.07258
5.8	3.09002
5.81	3.07324
5.82	3.1035
5.83	3.06074
5.84	3.07258
5.85	3.06074
5.86	3.07127
5.87	3.09232
5.88	3.06337
5.89	3.05054
5.9	3.06173
5.91	3.08574
5.92	3.09627
5.93	3.05548
5.94	3.07357
5.95	3.09956
5.96	3.05482
5.97	3.07521
5.98	3.06666
5.99	3.07817
6	3.08048
6.01	3.07785
6.02	3.10318
6.03	3.06502
6.04	3.08311
6.05	3.07423
6.06	3.04133
6.07	3.0614
6.08	3.08048
6.09	3.05482
6.1	3.03837
6.11	3.08508
6.12	3.07423
6.13	3.07554
6.14	3.08804
6.15	3.10943
6.16	3.09956
6.17	3.06962
6.18	3.066
6.19	3.08245
6.2	3.08804
6.21	3.05317
6.22	3.07357
6.23	3.05679
6.24	3.06534
6.25	3.04758
6.26	3.10383
6.27	3.06337
6.28	3.0716
6.29	3.08574
6.3	3.06107
6.31	3.06995
6.32	3.10416
6.33	3.09364
6.34	3.07719
6.35	3.04857
6.36	3.06403
6.37	3.06863
6.38	3.05054
6.39	3.07456
6.4	3.04495
6.41	3.04166
6.42	3.06008
6.43	3.08673
6.44	3.09462
6.45	3.02653
6.46	3.05449
6.47	3.07785
6.48	3.07324
6.49	3.05877
6.5	3.0614
6.51	3.06633
6.52	3.06238
6.53	3.08377
6.54	3.08377
6.55	3.06666
6.56	3.08706
6.57	3.07653
6.58	3.05877
6.59	3.06271
6.6	3.10778
6.61	3.09594
6.62	3.05581
6.63	3.07686
6.64	3.04265
6.65	3.04791
6.66	3.07752
6.67	3.07094
6.68	3.04133
6.69	3.05317
6.7	3.06896
6.71	3.09364
6.72	3.07192
6.73	3.06831
6.74	3.0512
6.75	3.07916
6.76	3.06765
6.77	3.0716
6.78	3.0762
6.79	3.08311
6.8	3.07225
6.81	3.05844
6.82	3.01534
6.83	3.03311
6.84	3.03607
6.85	3.06206
6.86	3.03673
6.87	3.00383
6.88	3.06633
6.89	3.06567
6.9	3.06765
6.91	3.06074
6.92	3.05153
6.93	3.04988
6.94	3.06173
6.95	3.0637
6.96	3.04857
6.97	3.08541
6.98	3.0785
6.99	3.08344
7	3.06765
7.01	3.05613
7.02	3.04791
7.03	3.06238
7.04	3.0716
7.05	3.0364
7.06	3.05416
7.07	3.07554
7.08	3.07916
7.09	3.07916
7.1	3.05975
7.11	3.02982
7.12	3.02982
7.13	3.04659
7.14	3.05778
7.15	3.06863
7.16	3.0887
7.17	3.06107
7.18	3.0512
7.19	3.07949
7.2	3.05515
7.21	3.07258
7.22	3.03278
7.23	3.04824
7.24	3.08113
7.25	3.07028
7.26	3.04923
7.27	3.06271
7.28	3.06995
7.29	3.04627
7.3	3.05811
7.31	3.06107
7.32	3.03574
7.33	3.03738
7.34	3.07916
7.35	3.06633
7.36	3.0433
7.37	3.08541
7.38	3.05416
7.39	3.04627
7.4	3.03574
7.41	3.04133
7.42	3.05284
7.43	3.06863
7.44	3.02291
7.45	3.05252
7.46	3.05778
7.47	3.03245
7.48	3.02587
7.49	3.05909
7.5	3.04824
7.51	3.04857
7.52	3.03771
7.53	3.01732
7.54	3.05581
7.55	3.07817
7.56	3.03804
7.57	3.04298
7.58	3.03475
7.59	3.05844
7.6	3.07521
7.61	3.06074
7.62	3.05186
7.63	3.05054
7.64	3.05745
7.65	3.03607
7.66	3.03738
7.67	3.05219
7.68	3.05252
7.69	3.04758
7.7	3.06173
7.71	3.03771
7.72	3.01041
7.73	3.04396
7.74	3.02817
7.75	3.04462
7.76	3.03015
7.77	3.04659
7.78	3.041
7.79	3.0433
7.8	3.066
7.81	3.041
7.82	3.04396
7.83	3.02817
7.84	3.02258
7.85	3.01962
7.86	3.03212
7.87	3.03344
7.88	3.06567
7.89	3.05975
7.9	3.06962
7.91	3.06074
7.92	3.00087
7.93	3.03673
7.94	3.0387
7.95	3.05745
7.96	2.98903
7.97	3.03146
7.98	3.0887
7.99	3.05811
8	3.03969
8.01	3.03344
8.02	3.05877
8.03	3.04462
8.04	3.0614
8.05	3.05712
8.06	3.05317
8.07	2.99462
8.08	3.05416
8.09	3.03936
8.1	3.0535
8.11	3.03508
8.12	3.02751
8.13	3.00909
8.14	3.02061
8.15	3.01962
8.16	3.03048
8.17	3.04923
8.18	3.04955
8.19	2.98179
8.2	3.00975
8.21	3.06732
8.22	3.07192
8.23	3.04265
8.24	3.02883
8.25	3.01896
8.26	3.02061
8.27	3.05679
8.28	3.02291
8.29	3.00844
8.3	3.04298
8.31	3.05613
8.32	3.00449
8.33	3.02028
8.34	3.06074
8.35	3.03837
8.36	3.03738
8.37	3.03278
8.38	3.05581
8.39	3.041
8.4	3.04692
8.41	3.04659
8.42	3.06173
8.43	3.0433
8.44	3.04528
8.45	3.04429
8.46	3.03936
8.47	3.03245
8.48	3.06633
8.49	3.06863
8.5	3.05975
8.51	3.04396
8.52	3.01469
8.53	3.02455
8.54	3.02982
8.55	3.03245
8.56	3.0035
8.57	3.04232
8.58	3.05284
8.59	3.03903
8.6	3.02817
8.61	3.02291
8.62	3.00251
8.63	3.03146
8.64	3.05679
8.65	3.05219
8.66	3.04824
8.67	3.00778
8.68	3.01962
8.69	3.02751
8.7	3.04396
8.71	3.05877
8.72	3.03738
8.73	2.99265
8.74	3.05054
8.75	3.05909
8.76	3.04758
8.77	3.04002
8.78	3.03113
8.79	3.0387
8.8	3.04396
8.81	3.04495
8.82	3.02192
8.83	3.04002
8.84	3.01172
8.85	3.03804
8.86	3.03475
8.87	3.04659
8.88	3.01995
8.89	3.03311
8.9	3.04955
8.91	3.03771
8.92	3.03442
8.93	3.01699
8.94	3.02423
8.95	3.00613
8.96	3.04528
8.97	3.01469
8.98	3.01501
8.99	3.04429
9	3.04462
9.01	3.00745
9.02	3.04692
9.03	3.0614
9.04	3.05877
9.05	3.03278
9.06	3.00251
9.07	3.03409
9.08	3.02028
9.09	3.0183
9.1	3.00054
9.11	3.02488
9.12	3.0035
9.13	3.00876
9.14	3.0308
9.15	3.04495
9.16	3.02521
9.17	3.01995
9.18	3.02192
9.19	3.02159
9.2	3.0239
9.21	3.0012
9.22	3.00054
9.23	3.02521
9.24	2.99659
9.25	3.00844
9.26	3.03409
9.27	3.00153
9.28	3.02488
9.29	3.03179
9.3	3.0114
9.31	3.02291
9.32	3.06567
9.33	3.01699
9.34	3.0285
9.35	3.01304
9.36	3.01205
9.37	3.02883
9.38	3.02061
9.39	3.00975
9.4	3.0114
9.41	3.03541
9.42	3.04725
9.43	2.99659
9.44	3.01107
9.45	3.02587
9.46	3.02291
9.47	3.06403
9.48	3.02192
9.49	3.04627
9.5	3.02357
9.51	3.02982
9.52	3.00613
9.53	3.00547
9.54	3.0433
9.55	3.0239
9.56	3.00712
9.57	3.05054
9.58	3.02949
9.59	3.02094
9.6	3.04067
9.61	3.04133
9.62	3.05877
9.63	3.06206
9.64	2.99462
9.65	3.00876
9.66	3.03179
9.67	3.00054
9.68	3.01469
9.69	3.01765
9.7	3.0262
9.71	3.00186
9.72	3.0137
9.73	3.0239
9.74	2.99363
9.75	2.98442
9.76	3.02587
9.77	3.03376
9.78	2.99692
9.79	3.01403
9.8	3.04232
9.81	3.03015
9.82	3.00547
9.83	3.00153
9.84	3.01567
9.85	2.99824
9.86	3.00942
9.87	3.02982
9.88	3.01501
9.89	2.99955
9.9	3.01567
9.91	3.04265
9.92	3.0387
9.93	3.03376
9.94	3.04561
9.95	3.03245
9.96	3.02719
9.97	3.0285
9.98	3.01501
9.99	2.9887
10	3.02686
10.01	3.04363
10.02	3.00515
10.03	3.00153
10.04	3.06567
10.05	3.03376
10.06	3.00876
10.07	3.00679
10.08	3.03311
10.09	3.01238
10.1	3.03475
10.11	3.01995
10.12	3.01633
10.13	3.0239
10.14	3.04462
10.15	3.01863
10.16	3.0433
10.17	3.00021
10.18	3.01929
10.19	3.03969
10.2	3.01929
10.21	3.02751
10.22	3.01501
10.23	3.01699
10.24	3.03541
10.25	3.00515
10.26	3.02357
10.27	3.0114
10.28	3.02784
10.29	3.00613
10.3	3.02423
10.31	3.00975
10.32	3.00778
10.33	3.0114
10.34	3.03936
10.35	3.01666
10.36	3.04758
10.37	3.00482
10.38	3.0114
10.39	3.01798
10.4	3.00844
10.41	2.99067
10.42	2.97455
10.43	3.01107
10.44	3.02192
10.45	3.02126
10.46	2.99001
10.47	3.00251
10.48	3.00909
10.49	3.01501
10.5	3.03804
10.51	2.99067
10.52	3.00219
10.53	3.01567
10.54	3.01469
10.55	3.01041
10.56	3.01995
10.57	3.03508
10.58	3.03705
10.59	3.04429
10.6	3.04199
10.61	3.00515
10.62	3.00745
10.63	3.01798
10.64	3.00219
10.65	2.99462
10.66	3.01534
10.67	3.02258
10.68	2.99857
10.69	2.99232
10.7	3.01765
10.71	3.01501
10.72	2.99495
10.73	3.02488
10.74	3.01172
10.75	3.01567
10.76	3.02126
10.77	3.01633
10.78	3.01863
10.79	2.98212
10.8	2.99034
10.81	3.01041
10.82	3.01666
10.83	2.97192
10.84	3.02949
10.85	3.0364
10.86	3.00482
10.87	3.01896
10.88	2.98804
10.89	2.98607
10.9	2.98804
10.91	3.00054
10.92	3.02455
10.93	3.01633
10.94	3.04232
10.95	3.03409
10.96	3.04232
10.97	3.02982
10.98	3.01107
10.99	3.03673
11	3.01567
11.01	3.00054
11.02	3.02291
11.03	3.03475
11.04	3.02455
11.05	3.03936
11.06	3.00449
11.07	2.97784
11.08	2.9762
11.09	2.98771
11.1	2.96271
11.11	2.99067
11.12	2.99758
11.13	2.98738
11.14	2.98804
11.15	3.0035
11.16	3.0285
11.17	3.01567
11.18	3.02719
11.19	3.02324
11.2	3.0012
11.21	2.97225
11.22	2.98278
11.23	3.01205
11.24	3.02784
11.25	3.016
11.26	3.01798
11.27	2.99232
11.28	3.00613
11.29	3.016
11.3	2.98278
11.31	2.9933
11.32	2.98705
11.33	3.00745
11.34	2.99922
11.35	3.04232
11.36	3.03015
11.37	3.04034
11.38	3.02028
11.39	3.07752
11.4	3.0262
11.41	2.99232
11.42	2.991
11.43	2.99067
11.44	2.99067
11.45	2.99067
11.46	3.00219
11.47	2.99593
11.48	2.98245
11.49	3.00679
11.5	3.041
11.51	3.03409
11.52	3.00087
11.53	3.03376
11.54	3.03969
11.55	3.02488
11.56	2.99396
11.57	2.97455
11.58	2.97982
11.59	2.99725
11.6	3.00449
11.61	3.04034
11.62	3.0433
11.63	3.00876
11.64	3.00909
11.65	3.00547
11.66	3.02192
11.67	3.03048
11.68	3.00087
11.69	2.98508
11.7	3.02455
11.71	3.01238
11.72	3.02554
11.73	2.98047
11.74	2.98014
11.75	3.02883
11.76	3.02258
11.77	3.00284
11.78	3.00219
11.79	2.99659
11.8	3.0058
11.81	2.9887
11.82	2.96238
11.83	3.00679
11.84	3.03311
11.85	3.03673
11.86	2.99396
11.87	2.98705
11.88	3.01567
11.89	2.99955
11.9	2.99791
11.91	3.01534
11.92	3.03245
11.93	3.00021
11.94	3.00515
11.95	2.99462
11.96	3.00515
11.97	3.00449
11.98	3.00876
11.99	2.99791
12	3.02587
12.01	3.02817
12.02	3.00416
12.03	3.00251
12.04	2.96403
12.05	2.99067
12.06	2.97883
12.07	2.98574
12.08	2.991
12.09	2.99133
12.1	3.01337
12.11	2.99824
12.12	3.0114
12.13	3.00317
12.14	2.99824
12.15	3.02061
12.16	3.02883
12.17	3.03015
12.18	3.03541
12.19	3.00712
12.2	2.97916
12.21	2.99626
12.22	3.01732
12.23	2.99001
12.24	2.97258
12.25	2.99429
12.26	2.99363
12.27	2.99528
12.28	3.02324
12.29	2.98311
12.3	2.97817
12.31	2.99001
12.32	2.99528
12.33	3.01172
12.34	2.966
12.35	2.99528
12.36	3.02291
12.37	2.99429
12.38	2.99429
12.39	2.96962
12.4	2.99199
12.41	2.98508
12.42	3.0137
12.43	3.01534
12.44	3.00745
12.45	3.01008
12.46	2.99692
12.47	3.0035
12.48	2.97686
12.49	2.9785
12.5	3.0012
12.51	2.98738
12.52	2.99659
12.53	3.01534
12.54	2.97653
12.55	2.98771
12.56	3.00745
12.57	3.00811
12.58	2.96435
12.59	2.99133
12.6	3.00317
12.61	2.99495
12.62	2.991
12.63	2.98903
12.64	3.00679
12.65	2.98343
12.66	2.96764
12.67	2.99034
12.68	2.99429
12.69	2.99922
12.7	2.98771
12.71	2.98837
12.72	2.95646
12.73	2.98541
12.74	3.02784
12.75	3.0239
12.76	2.98047
12.77	2.98146
12.78	3.00449
12.79	3.03508
12.8	3.016
12.81	2.97718
12.82	2.97126
12.83	3.02258
12.84	3.02357
12.85	2.98179
12.86	2.9989
12.87	2.96633
12.88	2.9785
12.89	3.03936
12.9	3.01238
12.91	3.0364
12.92	3.00021
12.93	2.9887
12.94	2.98936
12.95	2.99922
12.96	2.99659
12.97	2.97126
12.98	2.97324
12.99	2.95909
13	2.95218
13.01	2.96764
13.02	2.97784
13.03	3.00021
13.04	2.99396
13.05	2.99265
13.06	3.0114
13.07	2.97028
13.08	2.99462
13.09	3.00449
13.1	2.991
13.11	2.98311
13.12	2.97587
13.13	3.00712
13.14	3.00975
13.15	2.96863
13.16	2.9887
13.17	2.99593
13.18	2.98837
13.19	2.98574
13.2	3.0262
13.21	2.99692
13.22	3.01732
13.23	3.00087
13.24	3.01304
13.25	2.99791
13.26	3.02488
13.27	2.96929
13.28	2.9989
13.29	2.96567
13.3	2.96205
13.31	2.96567
13.32	3.00482
13.33	3.0239
13.34	2.98442
13.35	2.98771
13.36	2.9637
13.37	2.96797
13.38	2.99199
13.39	2.98672
13.4	2.991
13.41	2.99166
13.42	2.96732
13.43	2.99363
13.44	3.00219
13.45	3.00975
13.46	3.02225
13.47	2.99692
13.48	2.97916
13.49	2.98837
13.5	2.98212
13.51	2.99034
13.52	2.98047
13.53	3.01403
13.54	2.9887
13.55	2.9887
13.56	3.00712
13.57	3.00021
13.58	2.99001
13.59	3.01337
13.6	2.99626
13.61	2.95284
13.62	2.9683
13.63	2.96863
13.64	2.99462
13.65	2.99561
13.66	2.9864
13.67	2.98245
13.68	2.98574
13.69	2.966
13.7	2.99824
13.71	3.00449
13.72	2.96501
13.73	3.01403
13.74	3.01238
13.75	3.00909
