"BIO-KINE ASCII FILE"
"_COMMENT"	"MOS-500 Spectrometer"
"_COMMENT"	"Kinetics measurement"
"_COMMENT"	"Y Unit : Volt,  X Unit : s"
"_COMMENT"	"Excitation wavelength : 380 nm"
"_COMMENT"	"Fentes bandwidth =  1 nm"
"_COMMENT"	"HV= 700V"
"_COMMENT"	"Timebase  1 =  .01 s   3001 pts"
"_SFM"	"SFM-400 /S  Advanced mode"
"_SFM"	"Ratio : S1: 2.5, S2: 0, S3: 0, S4: 1"
"_SFM"	"Content : S1: , S2: , S3: , S4:"
"_SFM"	"Concentration : S1: , S2: , S3: , S4:"
"_SFM"	"Total volume : 209 µl  Flow : 3.5 mL/s"
"_SFM"	"Acquisition start :  10 ms before stop"
"_SFM"	"cuve=FC-15, s1=10 ml , s2=10 ml , s3=10 ml , s4=1.9 ml"
"_UNITX"	"s"
"_UNITY"	"Volt"
"_DELTAX"	0
"_DATA"
1e-300	7.95792
0.01	8.54247
0.02	8.69544
0.03	8.73097
0.04	8.74215
0.05	8.75202
0.06	8.7382
0.07	8.72833
0.08	8.73557
0.09	8.74741
0.1	8.75333
0.11	8.75761
0.12	8.75333
0.13	8.74379
0.14	8.75794
0.15	8.74314
0.16	8.75531
0.17	8.74248
0.18	8.73787
0.19	8.74643
0.2	8.74149
0.21	8.74544
0.22	8.72439
0.23	8.73393
0.24	8.72768
0.25	8.73491
0.26	8.71847
0.27	8.72274
0.28	8.71287
0.29	8.71287
0.3	8.70728
0.31	8.70366
0.32	8.7086
0.33	8.6961
0.34	8.69018
0.35	8.67241
0.36	8.67011
0.37	8.66781
0.38	8.68096
0.39	8.66353
0.4	8.64511
0.41	8.66156
0.42	8.64281
0.43	8.63294
0.44	8.64807
0.45	8.62998
0.46	8.61781
0.47	8.61846
0.48	8.62109
0.49	8.60695
0.5	8.61682
0.51	8.59215
0.52	8.57833
0.53	8.5734
0.54	8.59642
0.55	8.58195
0.56	8.57504
0.57	8.54675
0.58	8.53359
0.59	8.5507
0.6	8.53425
0.61	8.5382
0.62	8.52208
0.63	8.52307
0.64	8.52701
0.65	8.51451
0.66	8.50728
0.67	8.51418
0.68	8.50465
0.69	8.47932
0.7	8.46813
0.71	8.46517
0.72	8.47405
0.73	8.47043
0.74	8.45431
0.75	8.44543
0.76	8.43655
0.77	8.42635
0.78	8.42043
0.79	8.43458
0.8	8.42109
0.81	8.41056
0.82	8.38688
0.83	8.38754
0.84	8.40037
0.85	8.40004
0.86	8.38326
0.87	8.3678
0.88	8.35629
0.89	8.37208
0.9	8.35727
0.91	8.3474
0.92	8.34773
0.93	8.32602
0.94	8.32273
0.95	8.32833
0.96	8.32931
0.97	8.31879
0.98	8.31484
0.99	8.29675
1	8.2826
1.01	8.28161
1.02	8.26977
1.03	8.27438
1.04	8.2928
1.05	8.27306
1.06	8.26319
1.07	8.26253
1.08	8.23753
1.09	8.23753
1.1	8.22931
1.11	8.22701
1.12	8.23326
1.13	8.20628
1.14	8.18885
1.15	8.20201
1.16	8.18556
1.17	8.15694
1.18	8.1724
1.19	8.16582
1.2	8.16911
1.21	8.14872
1.22	8.15233
1.23	8.14082
1.24	8.12339
1.25	8.11648
1.26	8.10891
1.27	8.10858
1.28	8.10365
1.29	8.102
1.3	8.09312
1.31	8.09378
1.32	8.0849
1.33	8.06878
1.34	8.06023
1.35	8.05924
1.36	8.06121
1.37	8.04246
1.38	8.03095
1.39	8.03457
1.4	8.02602
1.41	8.02766
1.42	8.01779
1.43	8.00562
1.44	7.99509
1.45	7.99279
1.46	7.97569
1.47	7.99509
1.48	7.97009
1.49	7.95825
1.5	7.95134
1.51	7.96088
1.52	7.95365
1.53	7.94838
1.54	7.9395
1.55	7.93654
1.56	7.93358
1.57	7.93095
1.58	7.91845
1.59	7.9168
1.6	7.89674
1.61	7.89509
1.62	7.8816
1.63	7.87371
1.64	7.86713
1.65	7.85858
1.66	7.87042
1.67	7.86055
1.68	7.84772
1.69	7.84937
1.7	7.84312
1.71	7.82009
1.72	7.81746
1.73	7.81384
1.74	7.82173
1.75	7.802
1.76	7.79805
1.77	7.79377
1.78	7.78719
1.79	7.77667
1.8	7.77436
1.81	7.76515
1.82	7.75956
1.83	7.75134
1.84	7.73785
1.85	7.7418
1.86	7.73686
1.87	7.73127
1.88	7.71713
1.89	7.70594
1.9	7.70002
1.91	7.7089
1.92	7.69542
1.93	7.6964
1.94	7.67502
1.95	7.66844
1.96	7.67042
1.97	7.6589
1.98	7.64607
1.99	7.65561
2	7.62633
2.01	7.63226
2.02	7.62305
2.03	7.61581
2.04	7.6112
2.05	7.60528
2.06	7.61482
2.07	7.59278
2.08	7.59541
2.09	7.58456
2.1	7.58225
2.11	7.56087
2.12	7.56285
2.13	7.55725
2.14	7.55068
2.15	7.5316
2.16	7.52469
2.17	7.52798
2.18	7.52173
2.19	7.51745
2.2	7.50495
2.21	7.49475
2.22	7.50363
2.23	7.48423
2.24	7.48258
2.25	7.47074
2.26	7.476
2.27	7.45857
2.28	7.46449
2.29	7.46284
2.3	7.4464
2.31	7.42666
2.32	7.41975
2.33	7.42896
2.34	7.43357
2.35	7.41186
2.36	7.38718
2.37	7.3964
2.38	7.39278
2.39	7.39442
2.4	7.36218
2.41	7.36547
2.42	7.3612
2.43	7.35264
2.44	7.34541
2.45	7.33883
2.46	7.3431
2.47	7.32337
2.48	7.326
2.49	7.32271
2.5	7.32139
2.51	7.32139
2.52	7.30692
2.53	7.29804
2.54	7.29541
2.55	7.29475
2.56	7.28126
2.57	7.29014
2.58	7.28356
2.59	7.26712
2.6	7.25165
2.61	7.24409
2.62	7.24902
2.63	7.24179
2.64	7.2329
2.65	7.22534
2.66	7.21679
2.67	7.22435
2.68	7.22501
2.69	7.21054
2.7	7.19113
2.71	7.19442
2.72	7.18422
2.73	7.17961
2.74	7.16613
2.75	7.17764
2.76	7.16251
2.77	7.15067
2.78	7.14803
2.79	7.1431
2.8	7.13488
2.81	7.1158
2.82	7.12007
2.83	7.1204
2.84	7.11448
2.85	7.11876
2.86	7.11152
2.87	7.08454
2.88	7.09112
2.89	7.07829
2.9	7.06908
2.91	7.06777
2.92	7.05165
2.93	7.05461
2.94	7.05461
2.95	7.04145
2.96	7.03816
2.97	7.02895
2.98	7.02961
2.99	7.03158
3	7.0125
3.01	7.0181
3.02	7.00823
3.03	6.98915
3.04	6.99277
3.05	6.97402
3.06	6.97698
3.07	6.97237
3.08	6.9704
3.09	6.96217
3.1	6.94638
3.11	6.94178
3.12	6.95
3.13	6.93882
3.14	6.92237
3.15	6.91645
3.16	6.9125
3.17	6.91316
3.18	6.91151
3.19	6.90395
3.2	6.89671
3.21	6.88717
3.22	6.87138
3.23	6.87336
3.24	6.87401
3.25	6.85987
3.26	6.85493
3.27	6.86809
3.28	6.84868
3.29	6.83618
3.3	6.8227
3.31	6.82763
3.32	6.82302
3.33	6.82401
3.34	6.81974
3.35	6.80033
3.36	6.81283
3.37	6.79868
3.38	6.77862
3.39	6.78881
3.4	6.78191
3.41	6.78454
3.42	6.7694
3.43	6.75723
3.44	6.75164
3.45	6.75427
3.46	6.74013
3.47	6.73881
3.48	6.73289
3.49	6.72204
3.5	6.72401
3.51	6.72236
3.52	6.70625
3.53	6.71447
3.54	6.71052
3.55	6.70296
3.56	6.6819
3.57	6.67467
3.58	6.68388
3.59	6.6773
3.6	6.67039
3.61	6.64802
3.62	6.64243
3.63	6.65263
3.64	6.64341
3.65	6.63124
3.66	6.62762
3.67	6.63355
3.68	6.62302
3.69	6.62499
3.7	6.62203
3.71	6.61447
3.72	6.59703
3.73	6.5921
3.74	6.58815
3.75	6.5967
3.76	6.57368
3.77	6.57466
3.78	6.56874
3.79	6.55493
3.8	6.55986
3.81	6.56249
3.82	6.55032
3.83	6.53716
3.84	6.53486
3.85	6.53453
3.86	6.52335
3.87	6.52499
3.88	6.51841
3.89	6.51315
3.9	6.50591
3.91	6.51775
3.92	6.50427
3.93	6.49802
3.94	6.48453
3.95	6.48782
3.96	6.47828
3.97	6.48617
3.98	6.4763
3.99	6.46611
4	6.46907
4.01	6.45163
4.02	6.43782
4.03	6.44374
4.04	6.42894
4.05	6.42565
4.06	6.41972
4.07	6.42301
4.08	6.39768
4.09	6.39439
4.1	6.39538
4.11	6.40229
4.12	6.39341
4.13	6.38288
4.14	6.38716
4.15	6.37959
4.16	6.36808
4.17	6.37203
4.18	6.35689
4.19	6.3592
4.2	6.35755
4.21	6.33814
4.22	6.33979
4.23	6.34275
4.24	6.31775
4.25	6.32893
4.26	6.32038
4.27	6.31545
4.28	6.30821
4.29	6.31742
4.3	6.32071
4.31	6.31248
4.32	6.29538
4.33	6.30064
4.34	6.28058
4.35	6.28025
4.36	6.27663
4.37	6.27762
4.38	6.2661
4.39	6.25985
4.4	6.25689
4.41	6.26413
4.42	6.24834
4.43	6.24242
4.44	6.23715
4.45	6.24702
4.46	6.2263
4.47	6.22827
4.48	6.22071
4.49	6.20557
4.5	6.20656
4.51	6.21215
4.52	6.20196
4.53	6.19373
4.54	6.17794
4.55	6.18255
4.56	6.17992
4.57	6.17366
4.58	6.1684
4.59	6.18189
4.6	6.1638
4.61	6.15985
4.62	6.16577
4.63	6.16478
4.64	6.15064
4.65	6.12893
4.66	6.13419
4.67	6.12893
4.68	6.12761
4.69	6.1184
4.7	6.10886
4.71	6.10919
4.72	6.11379
4.73	6.11051
4.74	6.09636
4.75	6.09965
4.76	6.09439
4.77	6.08847
4.78	6.09241
4.79	6.0855
4.8	6.07399
4.81	6.06642
4.82	6.06182
4.83	6.06412
4.84	6.06116
4.85	6.05721
4.86	6.0536
4.87	6.05064
4.88	6.04702
4.89	6.04932
4.9	6.03649
4.91	6.04373
4.92	6.03649
4.93	6.03386
4.94	6.02004
4.95	6.01774
4.96	6.02103
4.97	6.01971
4.98	6.00063
4.99	5.99932
5	5.99932
5.01	5.9934
5.02	6.00491
5.03	5.98155
5.04	5.98846
5.05	5.98846
5.06	5.97432
5.07	5.95655
5.08	5.96807
5.09	5.9628
5.1	5.96083
5.11	5.95359
5.12	5.94537
5.13	5.93714
5.14	5.93846
5.15	5.93188
5.16	5.92958
5.17	5.92136
5.18	5.92464
5.19	5.91642
5.2	5.91083
5.21	5.9128
5.22	5.90359
5.23	5.89306
5.24	5.90359
5.25	5.90096
5.26	5.89405
5.27	5.89372
5.28	5.88385
5.29	5.87135
5.3	5.87399
5.31	5.85852
5.32	5.85787
5.33	5.85326
5.34	5.8628
5.35	5.84898
5.36	5.84668
5.37	5.84997
5.38	5.83352
5.39	5.83517
5.4	5.82826
5.41	5.83846
5.42	5.83813
5.43	5.83089
5.44	5.82497
5.45	5.82201
5.46	5.81477
5.47	5.80688
5.48	5.80754
5.49	5.80984
5.5	5.79207
5.51	5.7901
5.52	5.78254
5.53	5.78681
5.54	5.78517
5.55	5.78385
5.56	5.77694
5.57	5.78254
5.58	5.76773
5.59	5.77497
5.6	5.77398
5.61	5.75753
5.62	5.76148
5.63	5.74898
5.64	5.74569
5.65	5.73253
5.66	5.73517
5.67	5.73747
5.68	5.7276
5.69	5.73944
5.7	5.71872
5.71	5.71707
5.72	5.7151
5.73	5.71115
5.74	5.71477
5.75	5.70753
5.76	5.69569
5.77	5.70194
5.78	5.70589
5.79	5.70688
5.8	5.68451
5.81	5.67727
5.82	5.68253
5.83	5.6878
5.84	5.67365
5.85	5.67135
5.86	5.67365
5.87	5.66576
5.88	5.66214
5.89	5.66773
5.9	5.65556
5.91	5.64898
5.92	5.64997
5.93	5.65358
5.94	5.65062
5.95	5.63648
5.96	5.64108
5.97	5.63418
5.98	5.63582
5.99	5.62496
6	5.62562
6.01	5.62365
6.02	5.62365
6.03	5.61378
6.04	5.61181
6.05	5.60391
6.06	5.60358
6.07	5.61148
6.08	5.60194
6.09	5.59832
6.1	5.59931
6.11	5.59536
6.12	5.59799
6.13	5.58845
6.14	5.58385
6.15	5.58615
6.16	5.57431
6.17	5.56542
6.18	5.55884
6.19	5.55819
6.2	5.56279
6.21	5.55259
6.22	5.56115
6.23	5.55621
6.24	5.55161
6.25	5.54503
6.26	5.54009
6.27	5.54963
6.28	5.53417
6.29	5.53154
6.3	5.5368
6.31	5.547
6.32	5.53351
6.33	5.53779
6.34	5.53384
6.35	5.52069
6.36	5.51838
6.37	5.52858
6.38	5.522
6.39	5.51805
6.4	5.51378
6.41	5.50161
6.42	5.50522
6.43	5.50292
6.44	5.50161
6.45	5.50161
6.46	5.50128
6.47	5.50128
6.48	5.4743
6.49	5.47397
6.5	5.47726
6.51	5.47134
6.52	5.46279
6.53	5.4641
6.54	5.47035
6.55	5.46937
6.56	5.45588
6.57	5.46049
6.58	5.45555
6.59	5.44404
6.6	5.44141
6.61	5.45029
6.62	5.43845
6.63	5.4447
6.64	5.43845
6.65	5.43614
6.66	5.43713
6.67	5.43154
6.68	5.43154
6.69	5.4368
6.7	5.43483
6.71	5.41772
6.72	5.40818
6.73	5.41476
6.74	5.41838
6.75	5.42068
6.76	5.40095
6.77	5.41575
6.78	5.41509
6.79	5.40621
6.8	5.40785
6.81	5.39831
6.82	5.40851
6.83	5.40423
6.84	5.39502
6.85	5.38746
6.86	5.38055
6.87	5.3891
6.88	5.38055
6.89	5.37397
6.9	5.37594
6.91	5.37134
6.92	5.37693
6.93	5.36739
6.94	5.37035
6.95	5.36969
6.96	5.35752
6.97	5.35522
6.98	5.35094
6.99	5.35292
7	5.34404
7.01	5.36739
7.02	5.34535
7.03	5.33811
7.04	5.34634
7.05	5.33219
7.06	5.33779
7.07	5.33285
7.08	5.33186
7.09	5.33285
7.1	5.3266
7.11	5.32496
7.12	5.32002
7.13	5.31706
7.14	5.32002
7.15	5.3141
7.16	5.31575
7.17	5.31739
7.18	5.31443
7.19	5.29667
7.2	5.30193
7.21	5.29732
7.22	5.3039
7.23	5.30489
7.24	5.30555
7.25	5.28976
7.26	5.2937
7.27	5.28351
7.28	5.2868
7.29	5.28548
7.3	5.28153
7.31	5.28318
7.32	5.27923
7.33	5.27101
7.34	5.26607
7.35	5.26838
7.36	5.26805
7.37	5.26213
7.38	5.26607
7.39	5.26838
7.4	5.26311
7.41	5.24568
7.42	5.26015
7.43	5.2414
7.44	5.24666
7.45	5.2437
7.46	5.2414
7.47	5.24272
7.48	5.24173
7.49	5.23449
7.5	5.23482
7.51	5.24041
7.52	5.2437
7.53	5.2266
7.54	5.22133
7.55	5.21607
7.56	5.22495
7.57	5.21936
7.58	5.21739
7.59	5.21508
7.6	5.21114
7.61	5.20818
7.62	5.22133
7.63	5.20785
7.64	5.20489
7.65	5.21607
7.66	5.20225
7.67	5.20324
7.68	5.19633
7.69	5.20653
7.7	5.2016
7.71	5.19798
7.72	5.19798
7.73	5.19272
7.74	5.18943
7.75	5.19008
7.76	5.18877
7.77	5.18614
7.78	5.18482
7.79	5.19008
7.8	5.18679
7.81	5.17166
7.82	5.17758
7.83	5.17693
7.84	5.17331
7.85	5.16344
7.86	5.16377
7.87	5.15982
7.88	5.16969
7.89	5.16508
7.9	5.1539
7.91	5.15587
7.92	5.16114
7.93	5.15357
7.94	5.15817
7.95	5.16114
7.96	5.1687
7.97	5.16442
7.98	5.15916
7.99	5.16475
8	5.14732
8.01	5.15061
8.02	5.13975
8.03	5.14173
8.04	5.13416
8.05	5.14403
8.06	5.14929
8.07	5.12495
8.08	5.10686
8.09	5.12791
8.1	5.13186
8.11	5.12659
8.12	5.12824
8.13	5.12659
8.14	5.11804
8.15	5.12133
8.16	5.11146
8.17	5.11344
8.18	5.12166
8.19	5.12396
8.2	5.11442
8.21	5.10291
8.22	5.11344
8.23	5.12067
8.24	5.11475
8.25	5.11344
8.26	5.10455
8.27	5.10982
8.28	5.10488
8.29	5.09469
8.3	5.10192
8.31	5.0983
8.32	5.09666
8.33	5.09666
8.34	5.08909
8.35	5.08876
8.36	5.08547
8.37	5.08251
8.38	5.07725
8.39	5.07495
8.4	5.07955
8.41	5.08219
8.42	5.07495
8.43	5.06015
8.44	5.06705
8.45	5.07199
8.46	5.07594
8.47	5.06475
8.48	5.07429
8.49	5.06969
8.5	5.06508
8.51	5.05784
8.52	5.04436
8.53	5.05751
8.54	5.07232
8.55	5.05126
8.56	5.04436
8.57	5.04666
8.58	5.04764
8.59	5.05488
8.6	5.0437
8.61	5.04468
8.62	5.04863
8.63	5.04699
8.64	5.04863
8.65	5.04008
8.66	5.02988
8.67	5.04238
8.68	5.03843
8.69	5.03482
8.7	5.03909
8.71	5.03745
8.72	5.03449
8.73	5.03778
8.74	5.03547
8.75	5.02955
8.76	5.0233
8.77	5.03843
8.78	5.02692
8.79	5.02692
8.8	5.01179
8.81	5.02067
8.82	5.01837
8.83	5.01376
8.84	5.01212
8.85	5.01705
8.86	5.00883
8.87	5.00291
8.88	5.01606
8.89	5.0108
8.9	4.99337
8.91	4.99106
8.92	4.99435
8.93	5.01212
8.94	5.0108
8.95	4.99995
8.96	4.99896
8.97	4.99106
8.98	4.99337
8.99	4.99995
9	4.99929
9.01	4.98712
9.02	4.99534
9.03	4.99764
9.04	4.98514
9.05	4.9983
9.06	4.98646
9.07	4.99238
9.08	4.98679
9.09	4.97297
9.1	4.98975
9.11	4.99041
9.12	4.98284
9.13	4.97922
9.14	4.98416
9.15	4.97922
9.16	4.97264
9.17	4.97034
9.18	4.97067
9.19	4.98514
9.2	4.97231
9.21	4.9687
9.22	4.96442
9.23	4.96244
9.24	4.97363
9.25	4.95685
9.26	4.96047
9.27	4.96573
9.28	4.96047
9.29	4.9483
9.3	4.95126
9.31	4.96343
9.32	4.95356
9.33	4.95587
9.34	4.96639
9.35	4.95258
9.36	4.94764
9.37	4.95554
9.38	4.95422
9.39	4.93448
9.4	4.95323
9.41	4.95587
9.42	4.9585
9.43	4.94633
9.44	4.94994
9.45	4.94501
9.46	4.94139
9.47	4.94797
9.48	4.94337
9.49	4.94008
9.5	4.93613
9.51	4.9381
9.52	4.93646
9.53	4.94994
9.54	4.94534
9.55	4.9335
9.56	4.93021
9.57	4.93613
9.58	4.93152
9.59	4.92527
9.6	4.92297
9.61	4.92461
9.62	4.92461
9.63	4.92264
9.64	4.92856
9.65	4.92297
9.66	4.921
9.67	4.92001
9.68	4.90652
9.69	4.91935
9.7	4.92626
9.71	4.92922
9.72	4.91869
9.73	4.91343
9.74	4.91047
9.75	4.90981
9.76	4.90915
9.77	4.90159
9.78	4.90093
9.79	4.90882
9.8	4.90981
9.81	4.90521
9.82	4.90521
9.83	4.89336
9.84	4.90784
9.85	4.89567
9.86	4.90356
9.87	4.89764
9.88	4.89402
9.89	4.89172
9.9	4.89534
9.91	4.89501
9.92	4.89369
9.93	4.89172
9.94	4.88053
9.95	4.89007
9.96	4.8756
9.97	4.88448
9.98	4.88218
9.99	4.89073
10	4.89073
10.01	4.88843
10.02	4.88119
10.03	4.87955
10.04	4.8835
10.05	4.88251
10.06	4.88678
10.07	4.87856
10.08	4.87823
10.09	4.87494
10.1	4.8756
10.11	4.88711
10.12	4.89336
10.13	4.88317
10.14	4.87494
10.15	4.88284
10.16	4.87626
10.17	4.87428
10.18	4.86738
10.19	4.87856
10.2	4.87527
10.21	4.8631
10.22	4.85553
10.23	4.87297
10.24	4.87823
10.25	4.88119
10.26	4.87626
10.27	4.87757
10.28	4.86277
10.29	4.86507
10.3	4.87264
10.31	4.86968
10.32	4.85948
10.33	4.85093
10.34	4.86639
10.35	4.85948
10.36	4.84895
10.37	4.85159
10.38	4.85652
10.39	4.83974
10.4	4.85718
10.41	4.86047
10.42	4.85159
10.43	4.85126
10.44	4.8552
10.45	4.85257
10.46	4.85093
10.47	4.85224
10.48	4.85488
10.49	4.84961
10.5	4.83744
10.51	4.83909
10.52	4.83941
10.53	4.84336
10.54	4.8483
10.55	4.83974
10.56	4.83777
10.57	4.84731
10.58	4.84599
10.59	4.84073
10.6	4.8302
10.61	4.84205
10.62	4.8427
10.63	4.82461
10.64	4.82889
10.65	4.83777
10.66	4.83547
10.67	4.83349
10.68	4.82362
10.69	4.83053
10.7	4.83119
10.71	4.83349
10.72	4.82823
10.73	4.82362
10.74	4.8154
10.75	4.83843
10.76	4.82198
10.77	4.82593
10.78	4.82724
10.79	4.83053
10.8	4.81343
10.81	4.82099
10.82	4.82691
10.83	4.8279
10.84	4.82231
10.85	4.82955
10.86	4.82264
10.87	4.83481
10.88	4.83678
10.89	4.82264
10.9	4.82198
10.91	4.82395
10.92	4.80948
10.93	4.82001
10.94	4.82395
10.95	4.8233
10.96	4.81705
10.97	4.80882
10.98	4.80356
10.99	4.80619
11	4.81112
11.01	4.82198
11.02	4.81211
11.03	4.81014
11.04	4.80389
11.05	4.81409
11.06	4.80751
11.07	4.80685
11.08	4.81869
11.09	4.80323
11.1	4.79797
11.11	4.80422
11.12	4.80553
11.13	4.80652
11.14	4.79402
11.15	4.79994
11.16	4.80093
11.17	4.79665
11.18	4.79961
11.19	4.80981
11.2	4.79698
11.21	4.79731
11.22	4.79303
11.23	4.78876
11.24	4.79402
11.25	4.79172
11.26	4.79994
11.27	4.78908
11.28	4.79566
11.29	4.79632
11.3	4.79303
11.31	4.79468
11.32	4.7983
11.33	4.78448
11.34	4.79237
11.35	4.78415
11.36	4.77823
11.37	4.78382
11.38	4.77593
11.39	4.78514
11.4	4.7779
11.41	4.78415
11.42	4.79599
11.43	4.78744
11.44	4.79073
11.45	4.78382
11.46	4.79139
11.47	4.78777
11.48	4.78514
11.49	4.79237
11.5	4.78547
11.51	4.78843
11.52	4.77066
11.53	4.78382
11.54	4.78119
11.55	4.78316
11.56	4.78678
11.57	4.77198
11.58	4.76902
11.59	4.78086
11.6	4.7802
11.61	4.77099
11.62	4.77395
11.63	4.77691
11.64	4.77954
11.65	4.77757
11.66	4.77066
11.67	4.76737
11.68	4.76573
11.69	4.77132
11.7	4.77658
11.71	4.77329
11.72	4.7654
11.73	4.78119
11.74	4.77856
11.75	4.75915
11.76	4.76441
11.77	4.7677
11.78	4.76343
11.79	4.76047
11.8	4.75981
11.81	4.77823
11.82	4.77461
11.83	4.76408
11.84	4.75783
11.85	4.76474
11.86	4.7631
11.87	4.76836
11.88	4.76014
11.89	4.76474
11.9	4.75915
11.91	4.7506
11.92	4.75783
11.93	4.76441
11.94	4.76244
11.95	4.75685
11.96	4.75093
11.97	4.75849
11.98	4.76573
11.99	4.76573
12	4.75553
12.01	4.7529
12.02	4.7506
12.03	4.74961
12.04	4.75718
12.05	4.74106
12.06	4.75093
12.07	4.75718
12.08	4.7529
12.09	4.75816
12.1	4.74665
12.11	4.7575
12.12	4.75224
12.13	4.74928
12.14	4.74632
12.15	4.74862
12.16	4.75093
12.17	4.7529
12.18	4.7427
12.19	4.75454
12.2	4.75224
12.21	4.75882
12.22	4.74961
12.23	4.73546
12.24	4.73119
12.25	4.74599
12.26	4.74665
12.27	4.7506
12.28	4.74468
12.29	4.75125
12.3	4.73875
12.31	4.74961
12.32	4.73842
12.33	4.73481
12.34	4.73349
12.35	4.73053
12.36	4.73316
12.37	4.74961
12.38	4.7404
12.39	4.7404
12.4	4.73612
12.41	4.73645
12.42	4.73711
12.43	4.72987
12.44	4.73448
12.45	4.7325
12.46	4.72625
12.47	4.73645
12.48	4.73349
12.49	4.7302
12.5	4.73645
12.51	4.7325
12.52	4.72921
12.53	4.73744
12.54	4.72625
12.55	4.72823
12.56	4.72889
12.57	4.73875
12.58	4.72757
12.59	4.72296
12.6	4.73579
12.61	4.73152
12.62	4.7256
12.63	4.7381
12.64	4.7256
12.65	4.73514
12.66	4.72691
12.67	4.73415
12.68	4.73546
12.69	4.72592
12.7	4.72362
12.71	4.72691
12.72	4.72625
12.73	4.72296
12.74	4.72658
12.75	4.73612
12.76	4.72231
12.77	4.72921
12.78	4.73053
12.79	4.7381
12.8	4.72691
12.81	4.73349
12.82	4.73974
12.83	4.73119
12.84	4.73283
12.85	4.72889
12.86	4.72658
12.87	4.71178
12.88	4.7279
12.89	4.72691
12.9	4.72461
12.91	4.73185
12.92	4.73152
12.93	4.7302
12.94	4.72823
12.95	4.72329
12.96	4.72921
12.97	4.72856
12.98	4.72494
12.99	4.71474
13	4.72165
13.01	4.71935
13.02	4.71408
13.03	4.71013
13.04	4.71869
13.05	4.71145
13.06	4.71573
13.07	4.72033
13.08	4.7154
13.09	4.71737
13.1	4.72625
13.11	4.71902
13.12	4.71178
13.13	4.72461
13.14	4.70487
13.15	4.70783
13.16	4.71671
13.17	4.71244
13.18	4.71342
13.19	4.71474
13.2	4.7052
13.21	4.70553
13.22	4.70092
13.23	4.70487
13.24	4.70059
13.25	4.70092
13.26	4.70125
13.27	4.70783
13.28	4.70323
13.29	4.71244
13.3	4.70454
13.31	4.70717
13.32	4.69994
13.33	4.71277
13.34	4.70619
13.35	4.7029
13.36	4.70619
13.37	4.70421
13.38	4.69303
13.39	4.6904
13.4	4.70092
13.41	4.69928
13.42	4.70027
13.43	4.69829
13.44	4.69171
13.45	4.70323
13.46	4.71145
13.47	4.70717
13.48	4.69928
13.49	4.7029
13.5	4.69533
13.51	4.70257
13.52	4.69961
13.53	4.70816
13.54	4.70454
13.55	4.70356
13.56	4.68612
13.57	4.69533
13.58	4.70783
13.59	4.68777
13.6	4.6927
13.61	4.68941
13.62	4.68579
13.63	4.67691
13.64	4.68974
13.65	4.70323
13.66	4.70454
13.67	4.70191
13.68	4.69073
13.69	4.68579
13.7	4.69105
13.71	4.69303
13.72	4.69566
13.73	4.68382
13.74	4.69171
