"BIO-KINE ASCII FILE"
"_COMMENT"	"MOS-500 Spectrometer"
"_COMMENT"	"Kinetics measurement"
"_COMMENT"	"Y Unit : Volt,  X Unit : s"
"_COMMENT"	"Excitation wavelength : 380 nm"
"_COMMENT"	"Fentes bandwidth =  1 nm"
"_COMMENT"	"HV= 1000V"
"_COMMENT"	"Timebase  1 =  .01 s   5001 pts"
"_SFM"	"SFM-400 /S  Advanced mode"
"_SFM"	"Ratio : S1: 2.5, S2: 0, S3: 0, S4: 1"
"_SFM"	"Content : S1: , S2: , S3: , S4:"
"_SFM"	"Concentration : S1: , S2: , S3: , S4:"
"_SFM"	"Total volume : 209 µl  Flow : 3.5 mL/s"
"_SFM"	"Acquisition start :  10 ms before stop"
"_SFM"	"cuve=FC-15, s1=10 ml , s2=10 ml , s3=10 ml , s4=1.9 ml"
"_UNITX"	"s"
"_UNITY"	"Volt"
"_DELTAX"	0
"_DATA"
1e-300	2.69823
0.01	2.68639
0.02	2.66829
0.03	2.70678
0.04	2.77882
0.05	2.82488
0.06	2.79264
0.07	2.78376
0.08	2.82356
0.09	2.88113
0.1	2.85021
0.11	2.87751
0.12	2.84757
0.13	2.81863
0.14	2.84363
0.15	2.84823
0.16	2.87784
0.17	2.86764
0.18	2.84626
0.19	2.89264
0.2	2.87915
0.21	2.86961
0.22	2.90777
0.23	2.88244
0.24	2.88705
0.25	2.90185
0.26	2.88639
0.27	2.90218
0.28	2.8956
0.29	2.88639
0.3	2.90613
0.31	2.916
0.32	2.90284
0.33	2.91534
0.34	2.89133
0.35	2.88244
0.36	2.86238
0.37	2.87225
0.38	2.87685
0.39	2.90481
0.4	2.91962
0.41	2.9035
0.42	2.92685
0.43	2.89462
0.44	2.84067
0.45	2.87718
0.46	2.9137
0.47	2.88639
0.48	2.89988
0.49	2.89198
0.5	2.90021
0.51	2.90021
0.52	2.90416
0.53	2.91863
0.54	2.86665
0.55	2.90218
0.56	2.88277
0.57	2.89494
0.58	2.89297
0.59	2.8956
0.6	2.91666
0.61	2.87258
0.62	2.89462
0.63	2.9206
0.64	2.891
0.65	2.91896
0.66	2.88343
0.67	2.88409
0.68	2.90613
0.69	2.89626
0.7	2.89231
0.71	2.89692
0.72	2.90547
0.73	2.85547
0.74	2.86369
0.75	2.87652
0.76	2.89034
0.77	2.89692
0.78	2.88409
0.79	2.88606
0.8	2.90251
0.81	2.8831
0.82	2.86402
0.83	2.89034
0.84	2.88475
0.85	2.91633
0.86	2.89527
0.87	2.91633
0.88	2.90416
0.89	2.89198
0.9	2.89659
0.91	2.89363
0.92	2.8683
0.93	2.88804
0.94	2.89198
0.95	2.87323
0.96	2.87159
0.97	2.86797
0.98	2.87027
0.99	2.88343
1	2.89297
1.01	2.8729
1.02	2.8729
1.03	2.89133
1.04	2.89889
1.05	2.91435
1.06	2.89429
1.07	2.85777
1.08	2.90152
1.09	2.88212
1.1	2.8706
1.11	2.8785
1.12	2.88409
1.13	2.89067
1.14	2.82652
1.15	2.83869
1.16	2.8581
1.17	2.86633
1.18	2.87225
1.19	2.91008
1.2	2.88804
1.21	2.86205
1.22	2.89494
1.23	2.8854
1.24	2.86073
1.25	2.89527
1.26	2.89856
1.27	2.92027
1.28	2.90646
1.29	2.891
1.3	2.91797
1.31	2.89955
1.32	2.88047
1.33	2.86501
1.34	2.87685
1.35	2.88244
1.36	2.87258
1.37	2.89988
1.38	2.9035
1.39	2.90613
1.4	2.88277
1.41	2.87784
1.42	2.87159
1.43	2.8785
1.44	2.87356
1.45	2.88705
1.46	2.89166
1.47	2.8808
1.48	2.88179
1.49	2.891
1.5	2.88113
1.51	2.87389
1.52	2.88442
1.53	2.89527
1.54	2.86369
1.55	2.83639
1.56	2.86863
1.57	2.90317
1.58	2.89067
1.59	2.84363
1.6	2.87027
1.61	2.86271
1.62	2.88047
1.63	2.86961
1.64	2.85777
1.65	2.84988
1.66	2.8535
1.67	2.86271
1.68	2.87883
1.69	2.90317
1.7	2.89198
1.71	2.87389
1.72	2.88146
1.73	2.87225
1.74	2.87093
1.75	2.87027
1.76	2.88606
1.77	2.88639
1.78	2.89659
1.79	2.89363
1.8	2.89297
1.81	2.86501
1.82	2.88244
1.83	2.84626
1.84	2.88014
1.85	2.86501
1.86	2.88705
1.87	2.87784
1.88	2.8729
1.89	2.86501
1.9	2.84692
1.91	2.83178
1.92	2.86863
1.93	2.8808
1.94	2.86073
1.95	2.86665
1.96	2.88804
1.97	2.88935
1.98	2.8854
1.99	2.87685
2	2.89198
2.01	2.88508
2.02	2.89955
2.03	2.87883
2.04	2.87948
2.05	2.86896
2.06	2.87554
2.07	2.86567
2.08	2.87883
2.09	2.86698
2.1	2.85086
2.11	2.85514
2.12	2.83672
2.13	2.86435
2.14	2.87488
2.15	2.88902
2.16	2.85415
2.17	2.86633
2.18	2.88047
2.19	2.8535
2.2	2.86238
2.21	2.86764
2.22	2.8683
2.23	2.87126
2.24	2.86929
2.25	2.88705
2.26	2.87619
2.27	2.87159
2.28	2.8706
2.29	2.8729
2.3	2.86731
2.31	2.88277
2.32	2.84626
2.33	2.87126
2.34	2.8854
2.35	2.86698
2.36	2.89396
2.37	2.891
2.38	2.88146
2.39	2.89527
2.4	2.90547
2.41	2.86468
2.42	2.89034
2.43	2.90185
2.44	2.88738
2.45	2.88442
2.46	2.87784
2.47	2.86764
2.48	2.86731
2.49	2.86271
2.5	2.86402
2.51	2.8581
2.52	2.85218
2.53	2.85448
2.54	2.87784
2.55	2.86205
2.56	2.87192
2.57	2.86238
2.58	2.86567
2.59	2.87323
2.6	2.82257
2.61	2.8433
2.62	2.84429
2.63	2.85744
2.64	2.88935
2.65	2.88409
2.66	2.83475
2.67	2.87554
2.68	2.8854
2.69	2.85909
2.7	2.86633
2.71	2.81994
2.72	2.82093
2.73	2.84659
2.74	2.84922
2.75	2.85086
2.76	2.85876
2.77	2.84659
2.78	2.87718
2.79	2.83507
2.8	2.86304
2.81	2.866
2.82	2.85942
2.83	2.8433
2.84	2.85054
2.85	2.88146
2.86	2.85547
2.87	2.85415
2.88	2.85251
2.89	2.89001
2.9	2.8331
2.91	2.85876
2.92	2.87093
2.93	2.85744
2.94	2.84757
2.95	2.84659
2.96	2.87192
2.97	2.87258
2.98	2.89955
2.99	2.86929
3	2.85448
3.01	2.86435
3.02	2.82323
3.03	2.86073
3.04	2.88376
3.05	2.86238
3.06	2.89396
3.07	2.86106
3.08	2.8354
3.09	2.8479
3.1	2.86008
3.11	2.85613
3.12	2.84659
3.13	2.84955
3.14	2.89429
3.15	2.84757
3.16	2.82323
3.17	2.8706
3.18	2.89889
3.19	2.87554
3.2	2.85251
3.21	2.87455
3.22	2.85613
3.23	2.86896
3.24	2.84988
3.25	2.86896
3.26	2.88343
3.27	2.85876
3.28	2.87093
3.29	2.87488
3.3	2.84856
3.31	2.83277
3.32	2.83343
3.33	2.88902
3.34	2.86238
3.35	2.866
3.36	2.85284
3.37	2.84955
3.38	2.87225
3.39	2.86764
3.4	2.88343
3.41	2.88968
3.42	2.89758
3.43	2.87521
3.44	2.88343
3.45	2.85086
3.46	2.85843
3.47	2.84231
3.48	2.87093
3.49	2.85481
3.5	2.87685
3.51	2.86238
3.52	2.86896
3.53	2.84593
3.54	2.8581
3.55	2.86764
3.56	2.8558
3.57	2.8183
3.58	2.87751
3.59	2.84527
3.6	2.85843
3.61	2.87192
3.62	2.85909
3.63	2.88837
3.64	2.86929
3.65	2.88277
3.66	2.90481
3.67	2.8933
3.68	2.86304
3.69	2.85284
3.7	2.86929
3.71	2.9137
3.72	2.88968
3.73	2.89922
3.74	2.8456
3.75	2.84692
3.76	2.82159
3.77	2.82553
3.78	2.87521
3.79	2.84461
3.8	2.89396
3.81	2.85876
3.82	2.83178
3.83	2.8479
3.84	2.82521
3.85	2.84396
3.86	2.88014
3.87	2.85382
3.88	2.83442
3.89	2.83902
3.9	2.80284
3.91	2.8331
3.92	2.84955
3.93	2.86863
3.94	2.82751
3.95	2.8183
3.96	2.8206
3.97	2.8479
3.98	2.86336
3.99	2.85415
4	2.87718
4.01	2.84067
4.02	2.8308
4.03	2.84527
4.04	2.83803
4.05	2.8581
4.06	2.83244
4.07	2.85744
4.08	2.84922
4.09	2.81534
4.1	2.82718
4.11	2.86172
4.12	2.81336
4.13	2.84231
4.14	2.83902
4.15	2.86665
4.16	2.85744
4.17	2.84988
4.18	2.83771
4.19	2.84955
4.2	2.84034
4.21	2.84034
4.22	2.86271
4.23	2.82817
4.24	2.84396
4.25	2.83475
4.26	2.84132
4.27	2.89396
4.28	2.82784
4.29	2.81205
4.3	2.85777
4.31	2.83738
4.32	2.85185
4.33	2.81271
4.34	2.84527
4.35	2.85876
4.36	2.88837
4.37	2.87126
4.38	2.87554
4.39	2.8331
4.4	2.85218
4.41	2.86863
4.42	2.85777
4.43	2.82126
4.44	2.83211
4.45	2.8456
4.46	2.82455
4.47	2.85876
4.48	2.86896
4.49	2.84067
4.5	2.82882
4.51	2.86205
4.52	2.8535
4.53	2.841
4.54	2.83178
4.55	2.87948
4.56	2.90054
4.57	2.84494
4.58	2.84231
4.59	2.85317
4.6	2.81731
4.61	2.84429
4.62	2.84396
4.63	2.84988
4.64	2.86633
4.65	2.82455
4.66	2.81567
4.67	2.83968
4.68	2.84461
4.69	2.8479
4.7	2.85284
4.71	2.85679
4.72	2.86764
4.73	2.85909
4.74	2.84692
4.75	2.81501
4.76	2.81336
4.77	2.86567
4.78	2.84429
4.79	2.85251
4.8	2.83507
4.81	2.82159
4.82	2.82422
4.83	2.81369
4.84	2.82981
4.85	2.82356
4.86	2.84659
4.87	2.82652
4.88	2.8308
4.89	2.84132
4.9	2.8604
4.91	2.83047
4.92	2.83935
4.93	2.84494
4.94	2.80251
4.95	2.8285
4.96	2.87817
4.97	2.87455
4.98	2.8433
4.99	2.80711
5	2.83244
5.01	2.83277
5.02	2.82224
5.03	2.81106
5.04	2.84264
5.05	2.83639
5.06	2.80711
5.07	2.8206
5.08	2.83507
5.09	2.84757
5.1	2.85646
5.11	2.88606
5.12	2.84757
5.13	2.81435
5.14	2.83705
5.15	2.85086
5.16	2.85876
5.17	2.87258
5.18	2.82817
5.19	2.81665
5.2	2.86238
5.21	2.84264
5.22	2.88146
5.23	2.84494
5.24	2.80086
5.25	2.80942
5.26	2.79692
5.27	2.81764
5.28	2.85711
5.29	2.81336
5.3	2.83935
5.31	2.83376
5.32	2.83507
5.33	2.82323
5.34	2.81435
5.35	2.86238
5.36	2.85415
5.37	2.8002
5.38	2.79132
5.39	2.81928
5.4	2.8206
5.41	2.85909
5.42	2.83935
5.43	2.81632
5.44	2.78672
5.45	2.82192
5.46	2.82126
5.47	2.85152
5.48	2.87554
5.49	2.88672
5.5	2.84527
5.51	2.85152
5.52	2.82718
5.53	2.8104
5.54	2.81896
5.55	2.81172
5.56	2.81534
5.57	2.8331
5.58	2.81271
5.59	2.81797
5.6	2.83014
5.61	2.82652
5.62	2.83178
5.63	2.82323
5.64	2.8308
5.65	2.82422
5.66	2.82356
5.67	2.80909
5.68	2.8229
5.69	2.81172
5.7	2.79823
5.71	2.82323
5.72	2.83376
5.73	2.82192
5.74	2.80053
5.75	2.81534
5.76	2.83343
5.77	2.82784
5.78	2.83639
5.79	2.84363
5.8	2.87488
5.81	2.84494
5.82	2.81731
5.83	2.83672
5.84	2.82093
5.85	2.84034
5.86	2.83738
5.87	2.82093
5.88	2.81567
5.89	2.81928
5.9	2.81928
5.91	2.82323
5.92	2.82224
5.93	2.81336
5.94	2.82257
5.95	2.83277
5.96	2.841
5.97	2.84067
5.98	2.82488
5.99	2.81501
6	2.80678
6.01	2.80514
6.02	2.84067
6.03	2.80645
6.04	2.81501
6.05	2.80349
6.06	2.82455
6.07	2.81369
6.08	2.79198
6.09	2.83113
6.1	2.82784
6.11	2.79001
6.12	2.8308
6.13	2.83869
6.14	2.83146
6.15	2.84231
6.16	2.81106
6.17	2.82224
6.18	2.81106
6.19	2.8331
6.2	2.8581
6.21	2.84396
6.22	2.84297
6.23	2.81271
6.24	2.79856
6.25	2.8206
6.26	2.84067
6.27	2.80448
6.28	2.75744
6.29	2.80547
6.3	2.84396
6.31	2.81698
6.32	2.80645
6.33	2.84165
6.34	2.81599
6.35	2.80843
6.36	2.83409
6.37	2.81303
6.38	2.81073
6.39	2.82553
6.4	2.81764
6.41	2.81599
6.42	2.80942
6.43	2.80909
6.44	2.82027
6.45	2.81303
6.46	2.82356
6.47	2.81238
6.48	2.81468
6.49	2.82553
6.5	2.81468
6.51	2.80185
6.52	2.81172
6.53	2.83836
6.54	2.83014
6.55	2.83738
6.56	2.80086
6.57	2.83244
6.58	2.8229
6.59	2.81435
6.6	2.85284
6.61	2.80152
6.62	2.80909
6.63	2.82751
6.64	2.82751
6.65	2.81928
6.66	2.81007
6.67	2.83343
6.68	2.83902
6.69	2.83409
6.7	2.8535
6.71	2.83968
6.72	2.80185
6.73	2.8229
6.74	2.79889
6.75	2.81172
6.76	2.81468
6.77	2.81435
6.78	2.84429
6.79	2.81961
6.8	2.81007
6.81	2.8285
6.82	2.79428
6.83	2.77816
6.84	2.80678
6.85	2.80119
6.86	2.80711
6.87	2.8285
6.88	2.8285
6.89	2.81501
6.9	2.81665
6.91	2.82784
6.92	2.80152
6.93	2.80284
6.94	2.80284
6.95	2.82027
6.96	2.84297
6.97	2.79461
6.98	2.78474
6.99	2.8058
7	2.79856
7.01	2.78935
7.02	2.75678
7.03	2.80843
7.04	2.80119
7.05	2.77586
7.06	2.78738
7.07	2.82718
7.08	2.80974
7.09	2.80317
7.1	2.80152
7.11	2.8002
7.12	2.83211
7.13	2.77784
7.14	2.77981
7.15	2.7808
7.16	2.77356
7.17	2.79494
7.18	2.81007
7.19	2.79461
7.2	2.79494
7.21	2.81534
7.22	2.78573
7.23	2.78606
7.24	2.7877
7.25	2.82586
7.26	2.82784
7.27	2.80645
7.28	2.79955
7.29	2.80284
7.3	2.81336
7.31	2.83705
7.32	2.82455
7.33	2.81172
7.34	2.84297
7.35	2.82422
7.36	2.79034
7.37	2.77718
7.38	2.76336
7.39	2.80876
7.4	2.83343
7.41	2.7979
7.42	2.80382
7.43	2.78145
7.44	2.78211
7.45	2.81928
7.46	2.76106
7.47	2.79692
7.48	2.84264
7.49	2.81336
7.5	2.80317
7.51	2.80251
7.52	2.81007
7.53	2.81073
7.54	2.77389
7.55	2.7831
7.56	2.80514
7.57	2.79264
7.58	2.79724
7.59	2.82422
7.6	2.79757
7.61	2.79034
7.62	2.7956
7.63	2.81238
7.64	2.81106
7.65	2.79363
7.66	2.76402
7.67	2.78409
7.68	2.81303
7.69	2.80547
7.7	2.7706
7.71	2.80974
7.72	2.81632
7.73	2.79198
7.74	2.81303
7.75	2.77159
7.76	2.76566
7.77	2.79461
7.78	2.77915
7.79	2.80547
7.8	2.84132
7.81	2.80382
7.82	2.78409
7.83	2.84231
7.84	2.79856
7.85	2.8354
7.86	2.83376
7.87	2.79692
7.88	2.79856
7.89	2.78047
7.9	2.81468
7.91	2.79757
7.92	2.80053
7.93	2.81797
7.94	2.82718
7.95	2.80645
7.96	2.80547
7.97	2.80876
7.98	2.80909
7.99	2.77751
8	2.79988
8.01	2.79757
8.02	2.80317
8.03	2.77981
8.04	2.78803
8.05	2.79823
8.06	2.80119
8.07	2.78507
8.08	2.79132
8.09	2.80547
8.1	2.78178
8.11	2.79856
8.12	2.82093
8.13	2.75974
8.14	2.78244
8.15	2.80053
8.16	2.83902
8.17	2.81863
8.18	2.80909
8.19	2.79034
8.2	2.78803
8.21	2.78803
8.22	2.81271
8.23	2.80415
8.24	2.79099
8.25	2.81698
8.26	2.81994
8.27	2.81567
8.28	2.83639
8.29	2.81468
8.3	2.82488
8.31	2.79034
8.32	2.79264
8.33	2.79856
8.34	2.79494
8.35	2.80152
8.36	2.78409
8.37	2.74329
8.38	2.76402
8.39	2.7729
8.4	2.77816
8.41	2.78507
8.42	2.80711
8.43	2.75645
8.44	2.77191
8.45	2.8206
8.46	2.78968
8.47	2.80645
8.48	2.77586
8.49	2.7683
8.5	2.77784
8.51	2.78343
8.52	2.7933
8.53	2.79264
8.54	2.77224
8.55	2.75711
8.56	2.79461
8.57	2.81106
8.58	2.79922
8.59	2.80448
8.6	2.77849
8.61	2.76632
8.62	2.78047
8.63	2.77751
8.64	2.80119
8.65	2.78277
8.66	2.77849
8.67	2.78474
8.68	2.78376
8.69	2.76237
8.7	2.76303
8.71	2.80284
8.72	2.79461
8.73	2.7808
8.74	2.75283
8.75	2.7706
8.76	2.74987
8.77	2.7729
8.78	2.79231
8.79	2.75744
8.8	2.79264
8.81	2.77915
8.82	2.79659
8.83	2.79889
8.84	2.77652
8.85	2.79988
8.86	2.77718
8.87	2.8081
8.88	2.75843
8.89	2.77323
8.9	2.77586
8.91	2.76928
8.92	2.80613
8.93	2.78343
8.94	2.78803
8.95	2.81534
8.96	2.8002
8.97	2.7979
8.98	2.78968
8.99	2.78409
9	2.80514
9.01	2.78277
9.02	2.7581
9.03	2.78178
9.04	2.76665
9.05	2.79988
9.06	2.80053
9.07	2.78935
9.08	2.77685
9.09	2.80152
9.1	2.78738
9.11	2.80876
9.12	2.81468
9.13	2.81961
9.14	2.78145
9.15	2.7831
9.16	2.7683
9.17	2.77455
9.18	2.79034
9.19	2.80119
9.2	2.76534
9.21	2.77751
9.22	2.81567
9.23	2.78573
9.24	2.79856
9.25	2.77619
9.26	2.76369
9.27	2.74329
9.28	2.76106
9.29	2.77882
9.3	2.78178
9.31	2.78869
9.32	2.7808
9.33	2.77455
9.34	2.76632
9.35	2.78639
9.36	2.78672
9.37	2.79626
9.38	2.79363
9.39	2.79198
9.4	2.81797
9.41	2.74823
9.42	2.76566
9.43	2.77224
9.44	2.78409
9.45	2.78376
9.46	2.76731
9.47	2.7752
9.48	2.77356
9.49	2.7752
9.5	2.75053
9.51	2.78211
9.52	2.80317
9.53	2.80514
9.54	2.77981
9.55	2.80317
9.56	2.79659
9.57	2.77816
9.58	2.78113
9.59	2.79626
9.6	2.79527
9.61	2.79428
9.62	2.77487
9.63	2.76599
9.64	2.78113
9.65	2.75119
9.66	2.76468
9.67	2.80119
9.68	2.75547
9.69	2.76994
9.7	2.76797
9.71	2.76632
9.72	2.78639
9.73	2.80909
9.74	2.80547
9.75	2.78047
9.76	2.7479
9.77	2.81205
9.78	2.79922
9.79	2.77422
9.8	2.77553
9.81	2.74626
9.82	2.77356
9.83	2.78507
9.84	2.75283
9.85	2.77159
9.86	2.79132
9.87	2.76007
9.88	2.74001
9.89	2.82323
9.9	2.77718
9.91	2.74033
9.92	2.76698
9.93	2.7854
9.94	2.78836
9.95	2.76665
9.96	2.76862
9.97	2.80974
9.98	2.76895
9.99	2.75678
10	2.7683
10.01	2.77882
10.02	2.77685
10.03	2.7808
10.04	2.76073
10.05	2.79692
10.06	2.78211
10.07	2.76632
10.08	2.76599
10.09	2.78935
10.1	2.78441
10.11	2.75678
10.12	2.77718
10.13	2.7808
10.14	2.77652
10.15	2.77784
10.16	2.77849
10.17	2.78441
10.18	2.7604
10.19	2.79494
10.2	2.77685
10.21	2.76961
10.22	2.76895
10.23	2.74395
10.24	2.76731
10.25	2.80448
10.26	2.77816
10.27	2.79001
10.28	2.76665
10.29	2.76073
10.3	2.79659
10.31	2.73244
10.32	2.76632
10.33	2.76534
10.34	2.7683
10.35	2.75086
10.36	2.76895
10.37	2.77652
10.38	2.81369
10.39	2.77849
10.4	2.75251
10.41	2.76073
10.42	2.78047
10.43	2.77126
10.44	2.77849
10.45	2.77784
10.46	2.74329
10.47	2.77981
10.48	2.78014
10.49	2.77389
10.5	2.78277
10.51	2.80448
10.52	2.76501
10.53	2.75251
10.54	2.75547
10.55	2.7706
10.56	2.78902
10.57	2.78474
10.58	2.73277
10.59	2.73672
10.6	2.76862
10.61	2.79034
10.62	2.77093
10.63	2.7502
10.64	2.77784
10.65	2.76994
10.66	2.79099
10.67	2.76665
10.68	2.75678
10.69	2.76599
10.7	2.77619
10.71	2.76961
10.72	2.7627
10.73	2.75711
10.74	2.75415
10.75	2.80415
10.76	2.78803
10.77	2.77849
10.78	2.77948
10.79	2.7831
10.8	2.78803
10.81	2.78672
10.82	2.77685
10.83	2.78803
10.84	2.76764
10.85	2.73573
10.86	2.78606
10.87	2.79363
10.88	2.74033
10.89	2.77718
10.9	2.78803
10.91	2.77652
10.92	2.77159
10.93	2.76599
10.94	2.75251
10.95	2.79889
10.96	2.79428
10.97	2.77685
10.98	2.75645
10.99	2.74724
11	2.79099
11.01	2.77882
11.02	2.75251
11.03	2.76566
11.04	2.78178
11.05	2.7706
11.06	2.74297
11.07	2.76106
11.08	2.79494
11.09	2.75678
11.1	2.79231
11.11	2.77849
11.12	2.77191
11.13	2.77619
11.14	2.76073
11.15	2.72915
11.16	2.7354
11.17	2.75086
11.18	2.73507
11.19	2.78507
11.2	2.75053
11.21	2.7206
11.22	2.73902
11.23	2.74132
11.24	2.76468
11.25	2.7558
11.26	2.7808
11.27	2.76961
11.28	2.77389
11.29	2.79363
11.3	2.77126
11.31	2.78343
11.32	2.75876
11.33	2.76632
11.34	2.77257
11.35	2.75119
11.36	2.75777
11.37	2.77882
11.38	2.79297
11.39	2.79132
11.4	2.75349
11.41	2.75481
11.42	2.74823
11.43	2.76303
11.44	2.74165
11.45	2.74757
11.46	2.76797
11.47	2.77948
11.48	2.7752
11.49	2.75777
11.5	2.74461
11.51	2.77487
11.52	2.78244
11.53	2.79034
11.54	2.77784
11.55	2.79001
11.56	2.79165
11.57	2.78376
11.58	2.73474
11.59	2.75876
11.6	2.77159
11.61	2.80119
11.62	2.78935
11.63	2.75941
11.64	2.7706
11.65	2.76764
11.66	2.77981
11.67	2.80843
11.68	2.78047
11.69	2.7854
11.7	2.76862
11.71	2.75448
11.72	2.7502
11.73	2.7706
11.74	2.7877
11.75	2.79461
11.76	2.76106
11.77	2.77126
11.78	2.77751
11.79	2.75283
11.8	2.78573
11.81	2.8002
11.82	2.75152
11.83	2.74033
11.84	2.75349
11.85	2.74626
11.86	2.7581
11.87	2.76665
11.88	2.73639
11.89	2.73935
11.9	2.76435
11.91	2.75514
11.92	2.74461
11.93	2.76632
11.94	2.74955
11.95	2.76599
11.96	2.73902
11.97	2.74066
11.98	2.75777
11.99	2.75514
12	2.76731
12.01	2.74099
12.02	2.75086
12.03	2.77323
12.04	2.78014
12.05	2.76073
12.06	2.73902
12.07	2.70283
12.08	2.73408
12.09	2.76139
12.1	2.77718
12.11	2.75843
12.12	2.77586
12.13	2.76139
12.14	2.74428
12.15	2.75481
12.16	2.72915
12.17	2.7581
12.18	2.77323
12.19	2.75843
12.2	2.77224
12.21	2.76336
12.22	2.72125
12.23	2.70678
12.24	2.71895
12.25	2.77882
12.26	2.74889
12.27	2.75843
12.28	2.76534
12.29	2.74297
12.3	2.73145
12.31	2.74001
12.32	2.74987
12.33	2.74264
12.34	2.76468
12.35	2.76007
12.36	2.78244
12.37	2.78902
12.38	2.76501
12.39	2.76073
12.4	2.75547
12.41	2.77751
12.42	2.7354
12.43	2.76139
12.44	2.74626
12.45	2.75514
12.46	2.7752
12.47	2.75645
12.48	2.73573
12.49	2.72816
12.5	2.75349
12.51	2.77356
12.52	2.75777
12.53	2.75053
12.54	2.76402
12.55	2.77422
12.56	2.76205
12.57	2.74987
12.58	2.73704
12.59	2.79988
12.6	2.77784
12.61	2.78738
12.62	2.74889
12.63	2.73343
12.64	2.75119
12.65	2.79099
12.66	2.77389
12.67	2.72586
12.68	2.71797
12.69	2.73902
12.7	2.75481
12.71	2.74955
12.72	2.7558
12.73	2.7581
12.74	2.76665
12.75	2.77126
12.76	2.77553
12.77	2.74889
12.78	2.77915
12.79	2.76994
12.8	2.75645
12.81	2.77455
12.82	2.74724
12.83	2.73836
12.84	2.74297
12.85	2.73704
12.86	2.76764
12.87	2.74099
12.88	2.73672
12.89	2.7479
12.9	2.77849
12.91	2.75777
12.92	2.75645
12.93	2.76862
12.94	2.73902
12.95	2.75382
12.96	2.74922
12.97	2.7683
12.98	2.77126
12.99	2.75645
13	2.75152
13.01	2.75415
13.02	2.76731
13.03	2.75283
13.04	2.74757
13.05	2.73672
13.06	2.76402
13.07	2.77257
13.08	2.77422
13.09	2.73474
13.1	2.76106
13.11	2.78113
13.12	2.77159
13.13	2.76369
13.14	2.75086
13.15	2.76237
13.16	2.76468
13.17	2.72257
13.18	2.74626
13.19	2.72915
13.2	2.77093
13.21	2.7581
13.22	2.7752
13.23	2.74658
13.24	2.73376
13.25	2.7683
13.26	2.74658
13.27	2.74691
13.28	2.75876
13.29	2.7877
13.3	2.75876
13.31	2.7456
13.32	2.72685
13.33	2.77356
13.34	2.75547
13.35	2.73244
13.36	2.72652
13.37	2.74724
13.38	2.77027
13.39	2.75152
13.4	2.78606
13.41	2.74593
13.42	2.74626
13.43	2.74922
13.44	2.72981
13.45	2.73968
13.46	2.74395
13.47	2.76501
13.48	2.76534
13.49	2.74658
13.5	2.77981
13.51	2.76928
13.52	2.73639
13.53	2.74033
13.54	2.75711
13.55	2.7354
13.56	2.74264
13.57	2.75974
13.58	2.74362
13.59	2.76139
13.6	2.77553
13.61	2.76106
13.62	2.74626
13.63	2.75382
13.64	2.76172
13.65	2.76435
13.66	2.79264
13.67	2.76139
13.68	2.74099
13.69	2.77257
13.7	2.76566
13.71	2.7627
13.72	2.7502
13.73	2.74724
13.74	2.74494
