"BIO-KINE ASCII FILE"
"_COMMENT"	"MOS-500 Spectrometer"
"_COMMENT"	"Kinetics measurement"
"_COMMENT"	"Y Unit : Volt,  X Unit : s"
"_COMMENT"	"Excitation wavelength : 380 nm"
"_COMMENT"	"Fentes bandwidth =  1 nm"
"_COMMENT"	"HV= 850V"
"_COMMENT"	"Timebase  1 =  .01 s   3001 pts"
"_SFM"	"SFM-400 /S  Advanced mode"
"_SFM"	"Ratio : S1: 2.5, S2: 0, S3: 0, S4: 1"
"_SFM"	"Content : S1: , S2: , S3: , S4:"
"_SFM"	"Concentration : S1: , S2: , S3: , S4:"
"_SFM"	"Total volume : 209 µl  Flow : 3.5 mL/s"
"_SFM"	"Acquisition start :  10 ms before stop"
"_SFM"	"cuve=FC-15, s1=10 ml , s2=10 ml , s3=10 ml , s4=1.9 ml"
"_UNITX"	"s"
"_UNITY"	"Volt"
"_DELTAX"	0
"_DATA"
1e-300	9.59282
0.01	10.13
0.02	10.582
0.03	10.6757
0.04	10.6205
0.05	10.607
0.06	10.6139
0.07	10.6037
0.08	10.5942
0.09	10.6458
0.1	10.6471
0.11	10.6613
0.12	10.6461
0.13	10.6491
0.14	10.6511
0.15	10.6359
0.16	10.6415
0.17	10.653
0.18	10.6096
0.19	10.6366
0.2	10.6586
0.21	10.6142
0.22	10.6169
0.23	10.5639
0.24	10.5974
0.25	10.6034
0.26	10.603
0.27	10.5909
0.28	10.5978
0.29	10.6192
0.3	10.6376
0.31	10.5896
0.32	10.5928
0.33	10.5655
0.34	10.554
0.35	10.5603
0.36	10.5448
0.37	10.5537
0.38	10.5715
0.39	10.5474
0.4	10.533
0.41	10.5491
0.42	10.5323
0.43	10.5277
0.44	10.4876
0.45	10.5122
0.46	10.4997
0.47	10.4928
0.48	10.5218
0.49	10.4997
0.5	10.4757
0.51	10.4501
0.52	10.504
0.53	10.4879
0.54	10.4238
0.55	10.4317
0.56	10.4442
0.57	10.3955
0.58	10.429
0.59	10.4139
0.6	10.3965
0.61	10.38
0.62	10.3886
0.63	10.3442
0.64	10.3655
0.65	10.377
0.66	10.3435
0.67	10.3741
0.68	10.3764
0.69	10.3297
0.7	10.3247
0.71	10.3192
0.72	10.3563
0.73	10.3106
0.74	10.3037
0.75	10.3047
0.76	10.306
0.77	10.3165
0.78	10.2869
0.79	10.2777
0.8	10.2606
0.81	10.2399
0.82	10.2603
0.83	10.2688
0.84	10.2471
0.85	10.2284
0.86	10.2451
0.87	10.2221
0.88	10.2238
0.89	10.2238
0.9	10.1968
0.91	10.1715
0.92	10.1652
0.93	10.1899
0.94	10.1741
0.95	10.1645
0.96	10.1833
0.97	10.1609
0.98	10.1511
0.99	10.1395
1	10.1497
1.01	10.1277
1.02	10.1178
1.03	10.0889
1.04	10.1007
1.05	10.1122
1.06	10.103
1.07	10.0978
1.08	10.0971
1.09	10.0912
1.1	10.0691
1.11	10.0629
1.12	10.0096
1.13	10.0445
1.14	10.0566
1.15	10.0576
1.16	10.028
1.17	10.0155
1.18	10.002
1.19	10.009
1.2	10.0136
1.21	10.0185
1.22	9.99415
1.23	9.97178
1.24	9.95237
1.25	10.0066
1.26	9.96224
1.27	9.96027
1.28	9.96684
1.29	9.94941
1.3	9.93724
1.31	9.92704
1.32	9.92934
1.33	9.9175
1.34	9.90829
1.35	9.92244
1.36	9.87836
1.37	9.84151
1.38	9.88296
1.39	9.85928
1.4	9.87737
1.41	9.88987
1.42	9.85467
1.43	9.84283
1.44	9.83987
1.45	9.86717
1.46	9.8504
1.47	9.82112
1.48	9.81586
1.49	9.81586
1.5	9.80467
1.51	9.805
1.52	9.81947
1.53	9.80895
1.54	9.79579
1.55	9.77572
1.56	9.7823
1.57	9.77408
1.58	9.7471
1.59	9.7698
1.6	9.75566
1.61	9.7073
1.62	9.71388
1.63	9.73263
1.64	9.70927
1.65	9.72605
1.66	9.69217
1.67	9.7027
1.68	9.68526
1.69	9.71223
1.7	9.68033
1.71	9.66092
1.72	9.65796
1.73	9.6698
1.74	9.65335
1.75	9.64743
1.76	9.63065
1.77	9.62177
1.78	9.62013
1.79	9.61223
1.8	9.60565
1.81	9.62144
1.82	9.5869
1.83	9.57177
1.84	9.56125
1.85	9.59908
1.86	9.57243
1.87	9.5869
1.88	9.56388
1.89	9.55565
1.9	9.51749
1.91	9.54907
1.92	9.52605
1.93	9.53822
1.94	9.5323
1.95	9.47473
1.96	9.45466
1.97	9.46124
1.98	9.48855
1.99	9.47177
2	9.45631
2.01	9.4721
2.02	9.47473
2.03	9.47999
2.04	9.43559
2.05	9.4642
2.06	9.46223
2.07	9.44282
2.08	9.44874
2.09	9.44414
2.1	9.40598
2.11	9.38756
2.12	9.37012
2.13	9.38822
2.14	9.37407
2.15	9.36979
2.16	9.39282
2.17	9.37604
2.18	9.36618
2.19	9.35894
2.2	9.33723
2.21	9.33789
2.22	9.32308
2.23	9.33756
2.24	9.3346
2.25	9.31289
2.26	9.31519
2.27	9.29117
2.28	9.27703
2.29	9.30203
2.3	9.26815
2.31	9.26354
2.32	9.26617
2.33	9.28624
2.34	9.27275
2.35	9.26716
2.36	9.24644
2.37	9.22637
2.38	9.22242
2.39	9.20663
2.4	9.22473
2.41	9.24019
2.42	9.20598
2.43	9.2165
2.44	9.22802
2.45	9.19117
2.46	9.1642
2.47	9.16124
2.48	9.14808
2.49	9.16321
2.5	9.18065
2.51	9.14413
2.52	9.13163
2.53	9.10301
2.54	9.11518
2.55	9.15696
2.56	9.11058
2.57	9.08525
2.58	9.08591
2.59	9.10762
2.6	9.07999
2.61	9.0461
2.62	9.07505
2.63	9.06814
2.64	9.04676
2.65	9.05696
2.66	9.04939
2.67	9.05005
2.68	9.05005
2.69	9.0642
2.7	9.03393
2.71	9.00696
2.72	9.00038
2.73	9.00466
2.74	9.00301
2.75	8.98229
2.76	8.98623
2.77	9.01156
2.78	8.98591
2.79	8.94939
2.8	8.95202
2.81	8.95202
2.82	8.9734
2.83	8.99084
2.84	8.98229
2.85	8.96683
2.86	8.95071
2.87	8.93196
2.88	8.9359
2.89	8.93656
2.9	8.9188
2.91	8.91518
2.92	8.89906
2.93	8.87735
2.94	8.8938
2.95	8.88294
2.96	8.84774
2.97	8.85268
2.98	8.83064
2.99	8.83426
3	8.82867
3.01	8.84709
3.02	8.81353
3.03	8.84939
3.04	8.88163
3.05	8.84347
3.06	8.82044
3.07	8.81222
3.08	8.8484
3.09	8.76255
3.1	8.76715
3.11	8.76189
3.12	8.75958
3.13	8.72801
3.14	8.75268
3.15	8.75366
3.16	8.74511
3.17	8.73228
3.18	8.71814
3.19	8.72011
3.2	8.71649
3.21	8.72143
3.22	8.71452
3.23	8.68919
3.24	8.69708
3.25	8.62504
3.26	8.67537
3.27	8.69972
3.28	8.67142
3.29	8.69182
3.3	8.66452
3.31	8.63853
3.32	8.65958
3.33	8.67044
3.34	8.65761
3.35	8.64281
3.36	8.63754
3.37	8.61156
3.38	8.58721
3.39	8.62208
3.4	8.64116
3.41	8.64445
3.42	8.61254
3.43	8.61715
3.44	8.55004
3.45	8.59577
3.46	8.5803
3.47	8.53951
3.48	8.5609
3.49	8.56484
3.5	8.55925
3.51	8.56484
3.52	8.5734
3.53	8.55498
3.54	8.55859
3.55	8.53557
3.56	8.51188
3.57	8.51682
3.58	8.50333
3.59	8.50267
3.6	8.51912
3.61	8.51451
3.62	8.49379
3.63	8.503
3.64	8.49214
3.65	8.45103
3.66	8.4757
3.67	8.46813
3.68	8.45431
3.69	8.39675
3.7	8.43096
3.71	8.43293
3.72	8.46188
3.73	8.45464
3.74	8.42274
3.75	8.43359
3.76	8.42899
3.77	8.3905
3.78	8.4155
3.79	8.40892
3.8	8.37997
3.81	8.37866
3.82	8.39576
3.83	8.34806
3.84	8.32273
3.85	8.34675
3.86	8.35398
3.87	8.36122
3.88	8.37076
3.89	8.37076
3.9	8.3655
3.91	8.353
3.92	8.32668
3.93	8.30661
3.94	8.31286
3.95	8.31879
3.96	8.3303
3.97	8.31911
3.98	8.2724
3.99	8.30004
4	8.28392
4.01	8.30661
4.02	8.29346
4.03	8.27043
4.04	8.27339
4.05	8.24181
4.06	8.25563
4.07	8.24839
4.08	8.24214
4.09	8.23128
4.1	8.23655
4.11	8.25299
4.12	8.2553
4.13	8.22602
4.14	8.22339
4.15	8.22767
4.16	8.20859
4.17	8.18687
4.18	8.17733
4.19	8.20563
4.2	8.1872
4.21	8.19543
4.22	8.19609
4.23	8.17536
4.24	8.16845
4.25	8.1622
4.26	8.1724
4.27	8.14707
4.28	8.14839
4.29	8.12207
4.3	8.12832
4.31	8.15233
4.32	8.13391
4.33	8.1076
4.34	8.12536
4.35	8.11812
4.36	8.07931
4.37	8.11023
4.38	8.12372
4.39	8.10891
4.4	8.07569
4.41	8.05957
4.42	8.10003
4.43	8.0951
4.44	8.07108
4.45	8.04674
4.46	8.06516
4.47	8.077
4.48	8.06977
4.49	8.07667
4.5	8.04477
4.51	8.04411
4.52	8.04904
4.53	8.01483
4.54	7.9997
4.55	8.00398
4.56	8.03523
4.57	8.00792
4.58	7.98687
4.59	7.97996
4.6	7.98424
4.61	8.01648
4.62	7.97305
4.63	8.00398
4.64	8.02009
4.65	7.95299
4.66	7.9668
4.67	7.952
4.68	7.96022
4.69	7.96055
4.7	7.95858
4.71	7.94246
4.72	7.9372
4.73	7.92338
4.74	7.93588
4.75	7.95759
4.76	7.93687
4.77	7.93654
4.78	7.92667
4.79	7.90792
4.8	7.91121
4.81	7.87437
4.82	7.89575
4.83	7.8895
4.84	7.8997
4.85	7.8691
4.86	7.8691
4.87	7.87042
4.88	7.86318
4.89	7.86779
4.9	7.85266
4.91	7.87305
4.92	7.84641
4.93	7.83851
4.94	7.84443
4.95	7.87503
4.96	7.83095
4.97	7.84312
4.98	7.83259
4.99	7.802
5	7.80693
5.01	7.82766
5.02	7.81088
5.03	7.80035
5.04	7.82141
5.05	7.78588
5.06	7.78489
5.07	7.77502
5.08	7.79838
5.09	7.78818
5.1	7.76186
5.11	7.79608
5.12	7.79706
5.13	7.74772
5.14	7.71088
5.15	7.76384
5.16	7.74575
5.17	7.75792
5.18	7.73686
5.19	7.73028
5.2	7.71055
5.21	7.73654
5.22	7.72667
5.23	7.72239
5.24	7.7089
5.25	7.73094
5.26	7.71121
5.27	7.6816
5.28	7.68193
5.29	7.69048
5.3	7.6793
5.31	7.69114
5.32	7.68785
5.33	7.66943
5.34	7.69739
5.35	7.66745
5.36	7.66055
5.37	7.65331
5.38	7.66811
5.39	7.70002
5.4	7.64081
5.41	7.6066
5.42	7.6237
5.43	7.63818
5.44	7.63324
5.45	7.63127
5.46	7.61745
5.47	7.62568
5.48	7.59311
5.49	7.59739
5.5	7.58357
5.51	7.60331
5.52	7.60265
5.53	7.60364
5.54	7.60561
5.55	7.58522
5.56	7.56285
5.57	7.59015
5.58	7.57403
5.59	7.57403
5.6	7.54804
5.61	7.55035
5.62	7.5441
5.63	7.54475
5.64	7.57633
5.65	7.5385
5.66	7.54443
5.67	7.5362
5.68	7.53357
5.69	7.54574
5.7	7.52469
5.71	7.5191
5.72	7.5135
5.73	7.51317
5.74	7.51942
5.75	7.47534
5.76	7.47304
5.77	7.48883
5.78	7.54146
5.79	7.53192
5.8	7.49936
5.81	7.48357
5.82	7.49936
5.83	7.48686
5.84	7.44673
5.85	7.46284
5.86	7.4362
5.87	7.46186
5.88	7.45594
5.89	7.48949
5.9	7.45824
5.91	7.44113
5.92	7.4464
5.93	7.44574
5.94	7.4283
5.95	7.42205
5.96	7.42929
5.97	7.4237
5.98	7.4283
5.99	7.43258
6	7.43357
6.01	7.39837
6.02	7.41778
6.03	7.40791
6.04	7.40593
6.05	7.40758
6.06	7.38061
6.07	7.40495
6.08	7.40166
6.09	7.37501
6.1	7.38028
6.11	7.39475
6.12	7.36876
6.13	7.37699
6.14	7.35955
6.15	7.35067
6.16	7.33718
6.17	7.37337
6.18	7.3556
6.19	7.34376
6.2	7.32731
6.21	7.34442
6.22	7.35528
6.23	7.33718
6.24	7.34508
6.25	7.33653
6.26	7.33554
6.27	7.33159
6.28	7.36712
6.29	7.33093
6.3	7.29245
6.31	7.31777
6.32	7.34343
6.33	7.33356
6.34	7.35166
6.35	7.32139
6.36	7.27106
6.37	7.27139
6.38	7.29277
6.39	7.3033
6.4	7.3158
6.41	7.28389
6.42	7.29113
6.43	7.27666
6.44	7.27271
6.45	7.25133
6.46	7.27896
6.47	7.27633
6.48	7.27731
6.49	7.25626
6.5	7.25922
6.51	7.22632
6.52	7.23159
6.53	7.23521
6.54	7.24343
6.55	7.226
6.56	7.21448
6.57	7.21843
6.58	7.21777
6.59	7.22402
6.6	7.20757
6.61	7.23323
6.62	7.22764
6.63	7.19244
6.64	7.20626
6.65	7.18126
6.66	7.21448
6.67	7.20363
6.68	7.18323
6.69	7.21119
6.7	7.21415
6.71	7.18915
6.72	7.19935
6.73	7.19014
6.74	7.15494
6.75	7.18553
6.76	7.1931
6.77	7.14738
6.78	7.13586
6.79	7.14343
6.8	7.16284
6.81	7.16086
6.82	7.12172
6.83	7.14047
6.84	7.13257
6.85	7.13323
6.86	7.13685
6.87	7.12665
6.88	7.14869
6.89	7.16251
6.9	7.13816
6.91	7.13323
6.92	7.13488
6.93	7.1352
6.94	7.13126
6.95	7.11251
6.96	7.1079
6.97	7.09408
6.98	7.09935
6.99	7.13224
7	7.13882
7.01	7.12501
7.02	7.10297
7.03	7.1158
7.04	7.09705
7.05	7.07007
7.06	7.07928
7.07	7.07106
7.08	7.08849
7.09	7.10099
7.1	7.06547
7.11	7.08553
7.12	7.05724
7.13	7.07797
7.14	7.07928
7.15	7.08093
7.16	7.05724
7.17	7.04507
7.18	7.05264
7.19	7.06382
7.2	7.05757
7.21	7.02731
7.22	7.01481
7.23	7.05165
7.24	7.02731
7.25	7.01875
7.26	7.01382
7.27	7.05527
7.28	7.04112
7.29	7.01283
7.3	6.9931
7.31	6.99869
7.32	7.00625
7.33	7.03685
7.34	7.02007
7.35	7.02336
7.36	7.02171
7.37	7.00823
7.38	6.9977
7.39	7.01217
7.4	7.01645
7.41	6.98454
7.42	6.98323
7.43	6.97763
7.44	6.98586
7.45	6.96645
7.46	6.98388
7.47	6.97862
7.48	6.97698
7.49	6.95
7.5	6.97698
7.51	6.98323
7.52	6.96612
7.53	6.98684
7.54	6.98323
7.55	6.95954
7.56	6.94507
7.57	6.9454
7.58	6.94112
7.59	6.94013
7.6	6.93882
7.61	6.94803
7.62	6.93224
7.63	6.93783
7.64	6.92533
7.65	6.91776
7.66	6.94112
7.67	6.91974
7.68	6.9125
7.69	6.89868
7.7	6.92237
7.71	6.90855
7.72	6.91151
7.73	6.92994
7.74	6.89737
7.75	6.90428
7.76	6.87434
7.77	6.88553
7.78	6.89737
7.79	6.89737
7.8	6.90691
7.81	6.91316
7.82	6.89441
7.83	6.89474
7.84	6.87993
7.85	6.87467
7.86	6.87796
7.87	6.86546
7.88	6.86414
7.89	6.91086
7.9	6.89079
7.91	6.89013
7.92	6.85428
7.93	6.84375
7.94	6.85625
7.95	6.85428
7.96	6.84506
7.97	6.85
7.98	6.84145
7.99	6.84474
8	6.84835
8.01	6.8727
8.02	6.83158
8.03	6.84803
8.04	6.84046
8.05	6.8296
8.06	6.82401
8.07	6.83125
8.08	6.80592
8.09	6.84474
8.1	6.82039
8.11	6.80066
8.12	6.80164
8.13	6.84638
8.14	6.84474
8.15	6.82895
8.16	6.82763
8.17	6.79737
8.18	6.81908
8.19	6.81513
8.2	6.81316
8.21	6.7921
8.22	6.79375
8.23	6.76579
8.24	6.75921
8.25	6.81151
8.26	6.77434
8.27	6.77796
8.28	6.77335
8.29	6.7694
8.3	6.79605
8.31	6.75394
8.32	6.75362
8.33	6.75625
8.34	6.77269
8.35	6.77401
8.36	6.77204
8.37	6.77631
8.38	6.76217
8.39	6.80723
8.4	6.79013
8.41	6.71776
8.42	6.75033
8.43	6.74802
8.44	6.77072
8.45	6.73914
8.46	6.7296
8.47	6.74539
8.48	6.74605
8.49	6.75
8.5	6.7375
8.51	6.74046
8.52	6.76447
8.53	6.73454
8.54	6.74671
8.55	6.72861
8.56	6.7171
8.57	6.72763
8.58	6.7148
8.59	6.73585
8.6	6.74079
8.61	6.71381
8.62	6.7125
8.63	6.75
8.64	6.72171
8.65	6.73947
8.66	6.72138
8.67	6.69769
8.68	6.70822
8.69	6.71085
8.7	6.69934
8.71	6.67302
8.72	6.6796
8.73	6.69111
8.74	6.70723
8.75	6.68026
8.76	6.68453
8.77	6.70657
8.78	6.69375
8.79	6.66874
8.8	6.65131
8.81	6.66151
8.82	6.66447
8.83	6.68618
8.84	6.68157
8.85	6.66644
8.86	6.64736
8.87	6.67499
8.88	6.66381
8.89	6.6648
8.9	6.66348
8.91	6.6796
8.92	6.65559
8.93	6.63486
8.94	6.6467
8.95	6.6546
8.96	6.65986
8.97	6.66973
8.98	6.62269
8.99	6.65263
9	6.65065
9.01	6.62631
9.02	6.61545
9.03	6.67532
9.04	6.66776
9.05	6.64078
9.06	6.63552
9.07	6.62269
9.08	6.6092
9.09	6.63848
9.1	6.6296
9.11	6.63651
9.12	6.6467
9.13	6.64473
9.14	6.62565
9.15	6.62664
9.16	6.60197
9.17	6.6217
9.18	6.61644
9.19	6.62302
9.2	6.59835
9.21	6.61414
9.22	6.60723
9.23	6.59506
9.24	6.59835
9.25	6.60822
9.26	6.58354
9.27	6.5944
9.28	6.60591
9.29	6.59539
9.3	6.60723
9.31	6.60065
9.32	6.58815
9.33	6.59736
9.34	6.59999
9.35	6.5921
9.36	6.58026
9.37	6.59012
9.38	6.58914
9.39	6.56907
9.4	6.56677
9.41	6.56381
9.42	6.57335
9.43	6.56447
9.44	6.56808
9.45	6.56183
9.46	6.54473
9.47	6.55164
9.48	6.55131
9.49	6.55131
9.5	6.56512
9.51	6.57203
9.52	6.56052
9.53	6.59111
9.54	6.58157
9.55	6.549
9.56	6.57598
9.57	6.57137
9.58	6.56085
9.59	6.5194
9.6	6.51348
9.61	6.54308
9.62	6.5319
9.63	6.52729
9.64	6.56183
9.65	6.54802
9.66	6.52565
9.67	6.52302
9.68	6.5717
9.69	6.56512
9.7	6.54736
9.71	6.52631
9.72	6.50657
9.73	6.50196
9.74	6.51973
9.75	6.52598
9.76	6.51085
9.77	6.52006
9.78	6.51775
9.79	6.50854
9.8	6.52367
9.81	6.50756
9.82	6.49867
9.83	6.51117
9.84	6.52466
9.85	6.51085
9.86	6.51216
9.87	6.51117
9.88	6.49341
9.89	6.46512
9.9	6.51381
9.91	6.51578
9.92	6.50624
9.93	6.50065
9.94	6.48157
9.95	6.50887
9.96	6.51019
9.97	6.51578
9.98	6.49538
9.99	6.47894
10	6.48288
10.01	6.47992
10.02	6.47269
10.03	6.48913
10.04	6.48749
10.05	6.49275
10.06	6.48749
10.07	6.44933
10.08	6.45821
10.09	6.47894
10.1	6.49407
10.11	6.49999
10.12	6.47992
10.13	6.49111
10.14	6.48716
10.15	6.47762
10.16	6.44999
10.17	6.47269
10.18	6.46019
10.19	6.45262
10.2	6.46512
10.21	6.45986
10.22	6.45657
10.23	6.45196
10.24	6.43979
10.25	6.46545
10.26	6.45854
10.27	6.44242
10.28	6.43913
10.29	6.45065
10.3	6.4319
10.31	6.45492
10.32	6.45426
10.33	6.40262
10.34	6.45361
10.35	6.45032
10.36	6.43321
10.37	6.44571
10.38	6.43058
10.39	6.41972
10.4	6.43683
10.41	6.42992
10.42	6.41841
10.43	6.41775
10.44	6.374
10.45	6.42433
10.46	6.41545
10.47	6.44769
10.48	6.4444
10.49	6.43716
10.5	6.42992
10.51	6.39768
10.52	6.42203
10.53	6.43617
10.54	6.44703
10.55	6.40624
10.56	6.39933
10.57	6.41282
10.58	6.43617
10.59	6.40525
10.6	6.40163
10.61	6.39012
10.62	6.38387
10.63	6.40591
10.64	6.41051
10.65	6.42236
10.66	6.40032
10.67	6.38683
10.68	6.39933
10.69	6.39604
10.7	6.39637
10.71	6.40624
10.72	6.40262
10.73	6.40295
10.74	6.38485
10.75	6.40361
10.76	6.40624
10.77	6.39111
10.78	6.38124
10.79	6.38683
10.8	6.41709
10.81	6.41282
10.82	6.37564
10.83	6.38913
10.84	6.36972
10.85	6.35064
10.86	6.35262
10.87	6.38058
10.88	6.36018
10.89	6.33222
10.9	6.35689
10.91	6.39242
10.92	6.38321
10.93	6.36183
10.94	6.36446
10.95	6.38847
10.96	6.36117
10.97	6.35591
10.98	6.36775
10.99	6.37038
11	6.35295
11.01	6.37433
11.02	6.3536
11.03	6.38387
11.04	6.36084
11.05	6.38157
11.06	6.38091
11.07	6.33946
11.08	6.3865
11.09	6.38124
11.1	6.35755
11.11	6.3661
11.12	6.37137
11.13	6.34045
11.14	6.36775
11.15	6.37499
11.16	6.34999
11.17	6.36117
11.18	6.32762
11.19	6.32926
11.2	6.34341
11.21	6.32334
11.22	6.37334
11.23	6.35459
11.24	6.35097
11.25	6.35031
11.26	6.35393
11.27	6.36446
11.28	6.36446
11.29	6.32795
11.3	6.33716
11.31	6.31841
11.32	6.34999
11.33	6.3342
11.34	6.34867
11.35	6.3411
11.36	6.32137
11.37	6.34604
11.38	6.33716
11.39	6.32959
11.4	6.33189
11.41	6.33452
11.42	6.34275
11.43	6.31873
11.44	6.31643
11.45	6.31841
11.46	6.32202
11.47	6.3217
11.48	6.28683
11.49	6.30229
11.5	6.33025
11.51	6.3138
11.52	6.33814
11.53	6.33189
11.54	6.30459
11.55	6.33222
11.56	6.29439
11.57	6.30327
11.58	6.33452
11.59	6.33058
11.6	6.32466
11.61	6.35229
11.62	6.30196
11.63	6.3013
11.64	6.33354
11.65	6.28683
11.66	6.28781
11.67	6.29735
11.68	6.30821
11.69	6.30459
11.7	6.30459
11.71	6.29669
11.72	6.30887
11.73	6.29637
11.74	6.29834
11.75	6.28189
11.76	6.2809
11.77	6.27564
11.78	6.28946
11.79	6.28946
11.8	6.29077
11.81	6.29373
11.82	6.27992
11.83	6.28584
11.84	6.28452
11.85	6.29571
11.86	6.29669
11.87	6.27926
11.88	6.27663
11.89	6.29176
11.9	6.2684
11.91	6.25525
11.92	6.28419
11.93	6.29867
11.94	6.2888
11.95	6.2661
11.96	6.26084
11.97	6.25229
11.98	6.28123
11.99	6.29209
12	6.27465
12.01	6.27959
12.02	6.25261
12.03	6.27334
12.04	6.25656
12.05	6.26775
12.06	6.27334
12.07	6.28715
12.08	6.27762
12.09	6.25689
12.1	6.26479
12.11	6.27696
12.12	6.27498
12.13	6.27433
12.14	6.27202
12.15	6.23551
12.16	6.26742
12.17	6.26446
12.18	6.26084
12.19	6.25492
12.2	6.26314
12.21	6.29373
12.22	6.26808
12.23	6.24702
12.24	6.23814
12.25	6.23617
12.26	6.24538
12.27	6.2388
12.28	6.26215
12.29	6.25689
12.3	6.27433
12.31	6.2388
12.32	6.22794
12.33	6.23123
12.34	6.23748
12.35	6.22926
12.36	6.2411
12.37	6.22893
12.38	6.23288
12.39	6.22235
12.4	6.24044
12.41	6.26051
12.42	6.26413
12.43	6.25163
12.44	6.25722
12.45	6.24176
12.46	6.2513
12.47	6.26281
12.48	6.2138
12.49	6.21446
12.5	6.23913
12.51	6.21807
12.52	6.22071
12.53	6.23946
12.54	6.22893
12.55	6.23386
12.56	6.24275
12.57	6.23288
12.58	6.22334
12.59	6.23452
12.6	6.24702
12.61	6.22169
12.62	6.22367
12.63	6.20623
12.64	6.21577
12.65	6.20722
12.66	6.20327
12.67	6.20097
12.68	6.21281
12.69	6.22367
12.7	6.22794
12.71	6.23255
12.72	6.18649
12.73	6.20656
12.74	6.19505
12.75	6.23156
12.76	6.21643
12.77	6.24505
12.78	6.22465
12.79	6.21577
12.8	6.20031
12.81	6.23353
12.82	6.21643
12.83	6.22498
12.84	6.21248
12.85	6.2184
12.86	6.23057
12.87	6.18353
12.88	6.1888
12.89	6.20952
12.9	6.22334
12.91	6.20656
12.92	6.19538
12.93	6.2184
12.94	6.23025
12.95	6.2138
12.96	6.224
12.97	6.20919
12.98	6.20656
12.99	6.21215
13	6.19439
13.01	6.20064
13.02	6.19209
13.03	6.19899
13.04	6.21446
13.05	6.20985
13.06	6.2059
13.07	6.18452
13.08	6.17531
13.09	6.17564
13.1	6.21018
13.11	6.22334
13.12	6.20064
13.13	6.19472
13.14	6.19274
13.15	6.1888
13.16	6.17103
13.17	6.17893
13.18	6.20459
13.19	6.20163
13.2	6.19636
13.21	6.17893
13.22	6.20886
13.23	6.17597
13.24	6.17202
13.25	6.18617
13.26	6.16445
13.27	6.18255
13.28	6.19143
13.29	6.17136
13.3	6.17103
13.31	6.18649
13.32	6.19274
13.33	6.1934
13.34	6.17498
13.35	6.15656
13.36	6.17992
13.37	6.19603
13.38	6.1638
13.39	6.16774
13.4	6.17235
13.41	6.19439
13.42	6.20853
13.43	6.19044
13.44	6.2013
13.45	6.18123
13.46	6.17202
13.47	6.14998
13.48	6.17399
13.49	6.19735
13.5	6.1786
13.51	6.17301
13.52	6.17038
13.53	6.17663
13.54	6.15985
13.55	6.1786
13.56	6.17136
13.57	6.15031
13.58	6.1707
13.59	6.16149
13.6	6.17663
13.61	6.16051
13.62	6.14669
13.63	6.13682
13.64	6.14866
13.65	6.1559
13.66	6.14439
13.67	6.13518
13.68	6.14603
13.69	6.15623
13.7	6.1434
13.71	6.16478
13.72	6.17235
13.73	6.18288
13.74	6.17663
13.75	6.14241
13.76	6.15064
