"BIO-KINE ASCII FILE"
"_COMMENT"	"MOS-500 Spectrometer"
"_COMMENT"	"Kinetics measurement"
"_COMMENT"	"Y Unit : Volt,  X Unit : s"
"_COMMENT"	"Excitation wavelength : 380 nm"
"_COMMENT"	"Fentes bandwidth =  1 nm"
"_COMMENT"	"HV= 1000V"
"_COMMENT"	"Timebase  1 =  .01 s   3001 pts"
"_SFM"	"SFM-400 /S  Advanced mode"
"_SFM"	"Ratio : S1: 2.5, S2: 0, S3: 0, S4: 1"
"_SFM"	"Content : S1: , S2: , S3: , S4:"
"_SFM"	"Concentration : S1: , S2: , S3: , S4:"
"_SFM"	"Total volume : 209 µl  Flow : 3.5 mL/s"
"_SFM"	"Acquisition start :  10 ms before stop"
"_SFM"	"cuve=FC-15, s1=10 ml , s2=10 ml , s3=10 ml , s4=1.9 ml"
"_UNITX"	"s"
"_UNITY"	"Volt"
"_DELTAX"	0
"_DATA"
1e-300	2.63046
0.01	2.61697
0.02	2.60875
0.03	2.6377
0.04	2.68277
0.05	2.72224
0.06	2.70514
0.07	2.7252
0.08	2.73639
0.09	2.75283
0.1	2.76369
0.11	2.77652
0.12	2.77882
0.13	2.79034
0.14	2.80514
0.15	2.8206
0.16	2.82488
0.17	2.80645
0.18	2.78244
0.19	2.80613
0.2	2.76205
0.21	2.78047
0.22	2.77685
0.23	2.79527
0.24	2.82915
0.25	2.79363
0.26	2.78014
0.27	2.78836
0.28	2.82126
0.29	2.80251
0.3	2.80481
0.31	2.82192
0.32	2.85843
0.33	2.84297
0.34	2.7979
0.35	2.79001
0.36	2.81007
0.37	2.80053
0.38	2.80119
0.39	2.81731
0.4	2.82784
0.41	2.82981
0.42	2.79363
0.43	2.81106
0.44	2.81073
0.45	2.8331
0.46	2.82882
0.47	2.80711
0.48	2.81863
0.49	2.8331
0.5	2.8285
0.51	2.8183
0.52	2.85481
0.53	2.8535
0.54	2.82323
0.55	2.84198
0.56	2.8479
0.57	2.81665
0.58	2.82981
0.59	2.80777
0.6	2.85613
0.61	2.84889
0.62	2.83672
0.63	2.83803
0.64	2.82224
0.65	2.82817
0.66	2.82323
0.67	2.8479
0.68	2.83606
0.69	2.80415
0.7	2.83639
0.71	2.83113
0.72	2.83639
0.73	2.81665
0.74	2.83935
0.75	2.83244
0.76	2.83639
0.77	2.79264
0.78	2.81369
0.79	2.85086
0.8	2.82126
0.81	2.80349
0.82	2.83507
0.83	2.81501
0.84	2.79461
0.85	2.81698
0.86	2.81106
0.87	2.81271
0.88	2.82915
0.89	2.80645
0.9	2.81501
0.91	2.82356
0.92	2.7979
0.93	2.78639
0.94	2.82027
0.95	2.81172
0.96	2.81731
0.97	2.84231
0.98	2.84922
0.99	2.8535
1	2.82159
1.01	2.78738
1.02	2.8081
1.03	2.81172
1.04	2.80185
1.05	2.80086
1.06	2.81632
1.07	2.81896
1.08	2.82093
1.09	2.82126
1.1	2.8285
1.11	2.82553
1.12	2.83442
1.13	2.82586
1.14	2.81501
1.15	2.81336
1.16	2.85054
1.17	2.83211
1.18	2.80415
1.19	2.79395
1.2	2.84165
1.21	2.84527
1.22	2.77882
1.23	2.7956
1.24	2.8229
1.25	2.83803
1.26	2.79626
1.27	2.81731
1.28	2.80152
1.29	2.78474
1.3	2.79132
1.31	2.80744
1.32	2.80909
1.33	2.79001
1.34	2.80744
1.35	2.84823
1.36	2.82915
1.37	2.83409
1.38	2.79856
1.39	2.80481
1.4	2.7752
1.41	2.79922
1.42	2.78968
1.43	2.81764
1.44	2.80843
1.45	2.80481
1.46	2.7956
1.47	2.78343
1.48	2.78672
1.49	2.80744
1.5	2.83211
1.51	2.81073
1.52	2.77948
1.53	2.77487
1.54	2.78441
1.55	2.79823
1.56	2.8058
1.57	2.80053
1.58	2.79988
1.59	2.79461
1.6	2.7979
1.61	2.80448
1.62	2.78705
1.63	2.81336
1.64	2.81007
1.65	2.82224
1.66	2.7956
1.67	2.82981
1.68	2.81073
1.69	2.79692
1.7	2.81435
1.71	2.81073
1.72	2.78573
1.73	2.78474
1.74	2.7729
1.75	2.81106
1.76	2.79988
1.77	2.76172
1.78	2.80876
1.79	2.76665
1.8	2.81303
1.81	2.81303
1.82	2.81896
1.83	2.85382
1.84	2.83244
1.85	2.8183
1.86	2.7706
1.87	2.81402
1.88	2.83244
1.89	2.80251
1.9	2.79428
1.91	2.78705
1.92	2.78573
1.93	2.79297
1.94	2.81271
1.95	2.7979
1.96	2.80349
1.97	2.79395
1.98	2.76895
1.99	2.77751
2	2.77652
2.01	2.8104
2.02	2.78573
2.03	2.79231
2.04	2.78869
2.05	2.79198
2.06	2.77718
2.07	2.78244
2.08	2.79034
2.09	2.80514
2.1	2.81731
2.11	2.7808
2.12	2.79363
2.13	2.79659
2.14	2.79724
2.15	2.81205
2.16	2.78705
2.17	2.77882
2.18	2.79856
2.19	2.77652
2.2	2.79955
2.21	2.79724
2.22	2.79461
2.23	2.78606
2.24	2.79231
2.25	2.79001
2.26	2.78869
2.27	2.80613
2.28	2.78738
2.29	2.78606
2.3	2.80481
2.31	2.81698
2.32	2.81139
2.33	2.80317
2.34	2.79659
2.35	2.79988
2.36	2.77356
2.37	2.84297
2.38	2.84988
2.39	2.80909
2.4	2.80942
2.41	2.8229
2.42	2.80382
2.43	2.79001
2.44	2.7808
2.45	2.76435
2.46	2.78705
2.47	2.78441
2.48	2.77948
2.49	2.80711
2.5	2.79001
2.51	2.79198
2.52	2.79922
2.53	2.80053
2.54	2.79231
2.55	2.79297
2.56	2.80613
2.57	2.77389
2.58	2.77455
2.59	2.80448
2.6	2.81336
2.61	2.81139
2.62	2.81139
2.63	2.77027
2.64	2.7831
2.65	2.79297
2.66	2.78606
2.67	2.79297
2.68	2.77882
2.69	2.76172
2.7	2.80481
2.71	2.76994
2.72	2.79297
2.73	2.81139
2.74	2.79461
2.75	2.75251
2.76	2.75843
2.77	2.7979
2.78	2.80711
2.79	2.79527
2.8	2.79724
2.81	2.7808
2.82	2.75547
2.83	2.78606
2.84	2.76764
2.85	2.76566
2.86	2.77619
2.87	2.77586
2.88	2.78705
2.89	2.77882
2.9	2.76862
2.91	2.77816
2.92	2.78935
2.93	2.81073
2.94	2.78474
2.95	2.77948
2.96	2.75448
2.97	2.76534
2.98	2.76468
2.99	2.77652
3	2.8104
3.01	2.78047
3.02	2.78244
3.03	2.78409
3.04	2.77751
3.05	2.77455
3.06	2.73573
3.07	2.76402
3.08	2.76073
3.09	2.80053
3.1	2.77882
3.11	2.7979
3.12	2.76205
3.13	2.7377
3.14	2.76205
3.15	2.78376
3.16	2.79165
3.17	2.78244
3.18	2.75645
3.19	2.77784
3.2	2.76402
3.21	2.77882
3.22	2.77126
3.23	2.79264
3.24	2.8081
3.25	2.79823
3.26	2.78474
3.27	2.76172
3.28	2.73935
3.29	2.77652
3.3	2.79264
3.31	2.79231
3.32	2.7683
3.33	2.76106
3.34	2.76534
3.35	2.72586
3.36	2.76764
3.37	2.77784
3.38	2.77224
3.39	2.77224
3.4	2.77455
3.41	2.75908
3.42	2.76797
3.43	2.78113
3.44	2.77356
3.45	2.77685
3.46	2.77882
3.47	2.76205
3.48	2.77784
3.49	2.75744
3.5	2.75119
3.51	2.7729
3.52	2.78244
3.53	2.79823
3.54	2.77849
3.55	2.7604
3.56	2.7581
3.57	2.76961
3.58	2.76106
3.59	2.75908
3.6	2.76106
3.61	2.75349
3.62	2.76862
3.63	2.76797
3.64	2.78113
3.65	2.78606
3.66	2.77422
3.67	2.78113
3.68	2.78639
3.69	2.77487
3.7	2.76566
3.71	2.75843
3.72	2.76764
3.73	2.77685
3.74	2.78343
3.75	2.76566
3.76	2.76731
3.77	2.72586
3.78	2.78343
3.79	2.80251
3.8	2.78935
3.81	2.77422
3.82	2.76632
3.83	2.78178
3.84	2.7683
3.85	2.79363
3.86	2.76468
3.87	2.7729
3.88	2.78343
3.89	2.79626
3.9	2.80185
3.91	2.77948
3.92	2.75974
3.93	2.7627
3.94	2.75283
3.95	2.74593
3.96	2.74757
3.97	2.73277
3.98	2.74165
3.99	2.75086
4	2.76862
4.01	2.80613
4.02	2.77849
4.03	2.78474
4.04	2.7479
4.05	2.80481
4.06	2.78836
4.07	2.7808
4.08	2.7877
4.09	2.79395
4.1	2.79428
4.11	2.77257
4.12	2.76994
4.13	2.77389
4.14	2.76501
4.15	2.75908
4.16	2.75547
4.17	2.73441
4.18	2.76106
4.19	2.75316
4.2	2.75481
4.21	2.78113
4.22	2.77586
4.23	2.80547
4.24	2.78869
4.25	2.75711
4.26	2.76435
4.27	2.76928
4.28	2.74001
4.29	2.74724
4.3	2.76303
4.31	2.76172
4.32	2.73079
4.33	2.75612
4.34	2.75876
4.35	2.76928
4.36	2.7558
4.37	2.74001
4.38	2.74461
4.39	2.74593
4.4	2.7604
4.41	2.74099
4.42	2.76237
4.43	2.78211
4.44	2.75415
4.45	2.74757
4.46	2.74428
4.47	2.75152
4.48	2.74593
4.49	2.76862
4.5	2.76895
4.51	2.78573
4.52	2.75612
4.53	2.76205
4.54	2.76402
4.55	2.75349
4.56	2.78145
4.57	2.77652
4.58	2.7627
4.59	2.75152
4.6	2.74428
4.61	2.76073
4.62	2.78113
4.63	2.75448
4.64	2.73244
4.65	2.74165
4.66	2.79132
4.67	2.79099
4.68	2.78738
4.69	2.74165
4.7	2.74856
4.71	2.78803
4.72	2.78211
4.73	2.78047
4.74	2.76599
4.75	2.7604
4.76	2.76106
4.77	2.77487
4.78	2.80349
4.79	2.76139
4.8	2.75086
4.81	2.73803
4.82	2.72027
4.83	2.74362
4.84	2.76534
4.85	2.73737
4.86	2.75843
4.87	2.77751
4.88	2.76336
4.89	2.74527
4.9	2.7752
4.91	2.76862
4.92	2.74955
4.93	2.77356
4.94	2.75744
4.95	2.75974
4.96	2.73836
4.97	2.76139
4.98	2.75415
4.99	2.80119
5	2.78606
5.01	2.79461
5.02	2.77619
5.03	2.75876
5.04	2.78178
5.05	2.75251
5.06	2.71829
5.07	2.72915
5.08	2.74658
5.09	2.71632
5.1	2.7456
5.11	2.75349
5.12	2.74297
5.13	2.74362
5.14	2.74987
5.15	2.71961
5.16	2.74033
5.17	2.75612
5.18	2.76435
5.19	2.73047
5.2	2.72553
5.21	2.7604
5.22	2.72257
5.23	2.74461
5.24	2.74527
5.25	2.74691
5.26	2.74593
5.27	2.75876
5.28	2.76303
5.29	2.74099
5.3	2.75514
5.31	2.74066
5.32	2.75974
5.33	2.72454
5.34	2.73902
5.35	2.7604
5.36	2.73672
5.37	2.73343
5.38	2.72981
5.39	2.71204
5.4	2.73672
5.41	2.74099
5.42	2.77553
5.43	2.77718
5.44	2.75612
5.45	2.72718
5.46	2.76336
5.47	2.79757
5.48	2.74165
5.49	2.75843
5.5	2.75711
5.51	2.77389
5.52	2.77356
5.53	2.74001
5.54	2.75086
5.55	2.76468
5.56	2.77126
5.57	2.75283
5.58	2.76139
5.59	2.77849
5.6	2.75908
5.61	2.71994
5.62	2.72487
5.63	2.73474
5.64	2.72158
5.65	2.7581
5.66	2.74231
5.67	2.73343
5.68	2.74527
5.69	2.73441
5.7	2.72619
5.71	2.72093
5.72	2.73803
5.73	2.73178
5.74	2.75349
5.75	2.76073
5.76	2.76369
5.77	2.76205
5.78	2.73244
5.79	2.73704
5.8	2.74593
5.81	2.75777
5.82	2.77751
5.83	2.7456
5.84	2.7502
5.85	2.73079
5.86	2.75514
5.87	2.75218
5.88	2.7502
5.89	2.75908
5.9	2.73507
5.91	2.72619
5.92	2.75119
5.93	2.72257
5.94	2.77093
5.95	2.75645
5.96	2.74724
5.97	2.76468
5.98	2.74461
5.99	2.76599
6	2.77356
6.01	2.75876
6.02	2.73014
6.03	2.73573
6.04	2.74165
6.05	2.75777
6.06	2.74626
6.07	2.76007
6.08	2.73606
6.09	2.74757
6.1	2.73573
6.11	2.74757
6.12	2.73935
6.13	2.76566
6.14	2.74757
6.15	2.75415
6.16	2.77455
6.17	2.75251
6.18	2.76994
6.19	2.77159
6.2	2.73935
6.21	2.73507
6.22	2.715
6.23	2.75119
6.24	2.73376
6.25	2.7354
6.26	2.71764
6.27	2.72849
6.28	2.75382
6.29	2.76961
6.3	2.77323
6.31	2.73507
6.32	2.74132
6.33	2.75843
6.34	2.76534
6.35	2.76007
6.36	2.7377
6.37	2.74593
6.38	2.75119
6.39	2.73343
6.4	2.74428
6.41	2.72323
6.42	2.72323
6.43	2.71895
6.44	2.74461
6.45	2.73902
6.46	2.74165
6.47	2.76895
6.48	2.78474
6.49	2.74922
6.5	2.74922
6.51	2.75678
6.52	2.74132
6.53	2.70678
6.54	2.75876
6.55	2.75415
6.56	2.73968
6.57	2.75053
6.58	2.75744
6.59	2.73376
6.6	2.72685
6.61	2.74757
6.62	2.74001
6.63	2.74001
6.64	2.73145
6.65	2.75514
6.66	2.73737
6.67	2.71928
6.68	2.71402
6.69	2.72652
6.7	2.76501
6.71	2.75448
6.72	2.73639
6.73	2.74329
6.74	2.75185
6.75	2.75481
6.76	2.73606
6.77	2.76007
6.78	2.74494
6.79	2.7456
6.8	2.73474
6.81	2.76402
6.82	2.73935
6.83	2.73672
6.84	2.74955
6.85	2.73441
6.86	2.73047
6.87	2.74066
6.88	2.75152
6.89	2.75514
6.9	2.72224
6.91	2.75382
6.92	2.71764
6.93	2.75678
6.94	2.74856
6.95	2.75152
6.96	2.73672
6.97	2.77487
6.98	2.78573
6.99	2.73803
7	2.74724
7.01	2.77422
7.02	2.72783
7.03	2.74987
7.04	2.76534
7.05	2.75283
7.06	2.75547
7.07	2.7354
7.08	2.73343
7.09	2.75547
7.1	2.76895
7.11	2.75876
7.12	2.75415
7.13	2.73639
7.14	2.71961
7.15	2.75119
7.16	2.74461
7.17	2.71895
7.18	2.74724
7.19	2.74066
7.2	2.75612
7.21	2.7229
7.22	2.72915
7.23	2.74461
7.24	2.73211
7.25	2.74428
7.26	2.77487
7.27	2.75053
7.28	2.73639
7.29	2.73672
7.3	2.74428
7.31	2.74987
7.32	2.75382
7.33	2.75448
7.34	2.7558
7.35	2.73507
7.36	2.73178
7.37	2.73014
7.38	2.71797
7.39	2.7456
7.4	2.7104
7.41	2.71336
7.42	2.72323
7.43	2.69592
7.44	2.70349
7.45	2.69724
7.46	2.73639
7.47	2.75086
7.48	2.73507
7.49	2.74955
7.5	2.73968
7.51	2.7479
7.52	2.73441
7.53	2.75481
7.54	2.71829
7.55	2.73145
7.56	2.73112
7.57	2.73968
7.58	2.74001
7.59	2.72454
7.6	2.69921
7.61	2.72191
7.62	2.72125
7.63	2.74987
7.64	2.7683
7.65	2.73869
7.66	2.72224
7.67	2.73441
7.68	2.72093
7.69	2.71764
7.7	2.75283
7.71	2.72454
7.72	2.73145
7.73	2.75086
7.74	2.71665
7.75	2.7377
7.76	2.74132
7.77	2.72783
7.78	2.73145
7.79	2.74033
7.8	2.75974
7.81	2.74297
7.82	2.72093
7.83	2.7206
7.84	2.75119
7.85	2.73935
7.86	2.73639
7.87	2.73737
7.88	2.69329
7.89	2.75316
7.9	2.76435
7.91	2.74527
7.92	2.72586
7.93	2.72816
7.94	2.7275
7.95	2.72454
7.96	2.74757
7.97	2.73441
7.98	2.7456
7.99	2.77652
8	2.78343
8.01	2.73441
8.02	2.73507
8.03	2.70481
8.04	2.70185
8.05	2.73935
8.06	2.71171
8.07	2.73474
8.08	2.72125
8.09	2.7229
8.1	2.72125
8.11	2.74494
8.12	2.75185
8.13	2.73935
8.14	2.7206
8.15	2.74955
8.16	2.72948
8.17	2.72783
8.18	2.71336
8.19	2.72619
8.2	2.71402
8.21	2.71599
8.22	2.715
8.23	2.71895
8.24	2.75481
8.25	2.73178
8.26	2.73573
8.27	2.72257
8.28	2.73968
8.29	2.70481
8.3	2.72093
8.31	2.72323
8.32	2.70481
8.33	2.73639
8.34	2.72652
8.35	2.7002
8.36	2.70053
8.37	2.71665
8.38	2.74198
8.39	2.74757
8.4	2.72093
8.41	2.72422
8.42	2.70415
8.43	2.73902
8.44	2.74626
8.45	2.75316
8.46	2.72915
8.47	2.72125
8.48	2.69691
8.49	2.70744
8.5	2.73376
8.51	2.74362
8.52	2.7206
8.53	2.70218
8.54	2.69264
8.55	2.75152
8.56	2.75448
8.57	2.75349
8.58	2.75448
8.59	2.72553
8.6	2.71073
8.61	2.72389
8.62	2.73968
8.63	2.73672
8.64	2.73573
8.65	2.75481
8.66	2.72948
8.67	2.71204
8.68	2.6752
8.69	2.69428
8.7	2.71632
8.71	2.75251
8.72	2.71994
8.73	2.76665
8.74	2.72586
8.75	2.76007
8.76	2.7456
8.77	2.72356
8.78	2.73079
8.79	2.71764
8.8	2.76862
8.81	2.7104
8.82	2.6956
8.83	2.70875
8.84	2.75547
8.85	2.72356
8.86	2.69264
8.87	2.68342
8.88	2.69428
8.89	2.7275
8.9	2.74395
8.91	2.69987
8.92	2.73376
8.93	2.74527
8.94	2.71698
8.95	2.71204
8.96	2.73343
8.97	2.69889
8.98	2.70218
8.99	2.70678
9	2.73441
9.01	2.74231
9.02	2.73014
9.03	2.73277
9.04	2.73079
9.05	2.70119
9.06	2.73244
9.07	2.73507
9.08	2.68474
9.09	2.69461
9.1	2.72586
9.11	2.73474
9.12	2.71566
9.13	2.71698
9.14	2.68803
9.15	2.6877
9.16	2.73704
9.17	2.74724
9.18	2.72093
9.19	2.72257
9.2	2.75218
9.21	2.73145
9.22	2.74987
9.23	2.70546
9.24	2.70514
9.25	2.72125
9.26	2.70974
9.27	2.71073
9.28	2.69461
9.29	2.69
9.3	2.70185
9.31	2.70152
9.32	2.70448
9.33	2.7206
9.34	2.7002
9.35	2.70941
9.36	2.74297
9.37	2.71204
9.38	2.70086
9.39	2.7275
9.4	2.73672
9.41	2.72422
9.42	2.68375
9.43	2.71336
9.44	2.69856
9.45	2.71566
9.46	2.74757
9.47	2.74132
9.48	2.7377
9.49	2.74165
9.5	2.72257
9.51	2.72487
9.52	2.7252
9.53	2.71599
9.54	2.74626
9.55	2.74593
9.56	2.70152
9.57	2.74856
9.58	2.72652
9.59	2.71665
9.6	2.70283
9.61	2.69921
9.62	2.71303
9.63	2.73836
9.64	2.70843
9.65	2.73902
9.66	2.73639
9.67	2.72158
9.68	2.71698
9.69	2.73474
9.7	2.7081
9.71	2.73079
9.72	2.70283
9.73	2.6877
9.74	2.73145
9.75	2.74428
9.76	2.71402
9.77	2.70843
9.78	2.69033
9.79	2.69954
9.8	2.71073
9.81	2.70843
9.82	2.71204
9.83	2.7206
9.84	2.71632
9.85	2.72191
9.86	2.71073
9.87	2.72191
9.88	2.72323
9.89	2.70579
9.9	2.72027
9.91	2.73145
9.92	2.73902
9.93	2.75218
9.94	2.74099
9.95	2.74395
9.96	2.69132
9.97	2.71402
9.98	2.70744
9.99	2.69592
10	2.74428
10.01	2.71698
10.02	2.69691
10.03	2.71566
10.04	2.72849
10.05	2.74165
10.06	2.71895
10.07	2.70086
10.08	2.72816
10.09	2.72981
10.1	2.72422
10.11	2.70875
10.12	2.74955
10.13	2.74165
10.14	2.73507
10.15	2.71599
10.16	2.68441
10.17	2.71435
10.18	2.73145
10.19	2.73639
10.2	2.71599
10.21	2.74593
10.22	2.73047
10.23	2.74593
10.24	2.71073
10.25	2.70777
10.26	2.72816
10.27	2.70579
10.28	2.70777
10.29	2.73902
10.3	2.74132
10.31	2.7025
10.32	2.70481
10.33	2.70777
10.34	2.76764
10.35	2.76994
10.36	2.76205
10.37	2.74626
10.38	2.73343
10.39	2.73145
10.4	2.72191
10.41	2.75185
10.42	2.71336
10.43	2.73047
10.44	2.7331
10.45	2.72882
10.46	2.71139
10.47	2.70777
10.48	2.73145
10.49	2.73737
10.5	2.72454
10.51	2.71764
10.52	2.73606
10.53	2.71468
10.54	2.71007
10.55	2.71336
10.56	2.71862
10.57	2.73704
10.58	2.69921
10.59	2.73968
10.6	2.70678
10.61	2.68441
10.62	2.72553
10.63	2.73047
10.64	2.73079
10.65	2.72389
10.66	2.68704
10.67	2.73112
10.68	2.715
10.69	2.72356
10.7	2.72422
10.71	2.71073
10.72	2.70645
10.73	2.69231
10.74	2.69099
10.75	2.69395
10.76	2.71895
10.77	2.7127
10.78	2.69527
10.79	2.69921
10.8	2.72356
10.81	2.69856
10.82	2.7081
10.83	2.71237
10.84	2.68112
10.85	2.68408
10.86	2.69428
10.87	2.71928
10.88	2.70974
10.89	2.70086
10.9	2.69264
10.91	2.68737
10.92	2.69296
10.93	2.69757
10.94	2.70579
10.95	2.69428
10.96	2.73672
10.97	2.72454
10.98	2.70448
10.99	2.69527
11	2.71204
11.01	2.69823
11.02	2.70941
11.03	2.71237
11.04	2.7025
11.05	2.71928
11.06	2.71994
11.07	2.71336
11.08	2.68244
11.09	2.7206
11.1	2.72487
11.11	2.69165
11.12	2.71599
11.13	2.73441
11.14	2.71994
11.15	2.70514
11.16	2.74362
11.17	2.72224
11.18	2.69691
11.19	2.69527
11.2	2.67323
11.21	2.68704
11.22	2.72125
11.23	2.72356
11.24	2.71698
11.25	2.69658
11.26	2.69954
11.27	2.73047
11.28	2.73672
11.29	2.72125
11.3	2.72125
11.31	2.73244
11.32	2.70908
11.33	2.7104
11.34	2.72652
11.35	2.71303
11.36	2.67158
11.37	2.68441
11.38	2.73047
11.39	2.69724
11.4	2.71731
11.41	2.72191
11.42	2.73474
11.43	2.69724
11.44	2.68704
11.45	2.72257
11.46	2.70185
11.47	2.72783
11.48	2.67915
11.49	2.69099
11.5	2.70678
11.51	2.71698
11.52	2.7206
11.53	2.7331
11.54	2.71468
11.55	2.73704
11.56	2.72652
11.57	2.69
11.58	2.72191
11.59	2.71435
11.6	2.71862
11.61	2.71764
11.62	2.69987
11.63	2.7081
11.64	2.72586
11.65	2.72093
11.66	2.70579
11.67	2.70777
11.68	2.69921
11.69	2.72389
11.7	2.69362
11.71	2.71468
11.72	2.68704
11.73	2.73441
11.74	2.70119
11.75	2.69362
11.76	2.72915
11.77	2.71566
11.78	2.70612
11.79	2.71468
11.8	2.71468
11.81	2.74264
11.82	2.71303
11.83	2.72158
11.84	2.69691
11.85	2.72685
11.86	2.7331
11.87	2.71994
11.88	2.70843
11.89	2.7081
11.9	2.73047
11.91	2.72191
11.92	2.66829
11.93	2.69099
11.94	2.7127
11.95	2.73737
11.96	2.70349
11.97	2.72553
11.98	2.71303
11.99	2.69987
12	2.73737
12.01	2.7081
12.02	2.70941
12.03	2.71599
12.04	2.69428
12.05	2.70316
12.06	2.72257
12.07	2.71764
12.08	2.71171
12.09	2.71764
12.1	2.68935
12.11	2.71698
12.12	2.72783
12.13	2.73211
12.14	2.69132
12.15	2.71665
12.16	2.72323
12.17	2.7081
12.18	2.69658
12.19	2.72158
12.2	2.69231
12.21	2.69099
12.22	2.69033
12.23	2.71237
12.24	2.71599
12.25	2.70843
12.26	2.70711
12.27	2.69658
12.28	2.73474
12.29	2.70152
12.3	2.71139
12.31	2.73639
12.32	2.71106
12.33	2.73803
12.34	2.69428
12.35	2.70579
12.36	2.71665
12.37	2.69428
12.38	2.72882
12.39	2.74626
12.4	2.70415
12.41	2.72454
12.42	2.70645
12.43	2.7229
12.44	2.70119
12.45	2.71139
12.46	2.70283
12.47	2.69165
12.48	2.72125
12.49	2.69757
12.5	2.69823
12.51	2.72915
12.52	2.72191
12.53	2.7252
12.54	2.7002
12.55	2.72619
12.56	2.73803
12.57	2.72816
12.58	2.74494
12.59	2.71402
12.6	2.69823
12.61	2.70218
12.62	2.7331
12.63	2.71007
12.64	2.72816
12.65	2.70744
12.66	2.70645
12.67	2.72125
12.68	2.72224
12.69	2.70086
12.7	2.72356
12.71	2.71468
12.72	2.71007
12.73	2.71994
12.74	2.69198
12.75	2.72619
12.76	2.72718
12.77	2.70843
12.78	2.67948
12.79	2.68375
12.8	2.69066
12.81	2.73968
12.82	2.72257
12.83	2.71797
12.84	2.71797
12.85	2.7081
12.86	2.7081
12.87	2.70579
12.88	2.69658
12.89	2.70875
12.9	2.70218
12.91	2.7104
12.92	2.6854
12.93	2.67882
12.94	2.69724
12.95	2.71829
12.96	2.73441
12.97	2.72191
12.98	2.68836
12.99	2.7127
13	2.72718
13.01	2.70514
13.02	2.71797
13.03	2.70283
13.04	2.70481
13.05	2.6752
13.06	2.69132
13.07	2.71204
13.08	2.69954
13.09	2.68507
13.1	2.6752
13.11	2.69921
13.12	2.69691
13.13	2.67586
13.14	2.715
13.15	2.70974
13.16	2.69461
13.17	2.71139
13.18	2.72586
13.19	2.71237
13.2	2.69625
13.21	2.69494
13.22	2.71171
13.23	2.68507
13.24	2.70941
13.25	2.71533
13.26	2.71566
13.27	2.69494
13.28	2.6956
13.29	2.68112
13.3	2.68935
13.31	2.69099
13.32	2.69461
13.33	2.71599
13.34	2.67323
13.35	2.68375
13.36	2.69099
13.37	2.68836
13.38	2.71171
13.39	2.715
13.4	2.7002
13.41	2.7229
13.42	2.70415
13.43	2.68902
13.44	2.70678
13.45	2.72191
13.46	2.71237
13.47	2.69494
13.48	2.70119
13.49	2.72125
13.5	2.71928
13.51	2.72356
13.52	2.72125
13.53	2.71073
13.54	2.70283
13.55	2.69494
13.56	2.71829
13.57	2.74165
13.58	2.71237
13.59	2.69954
13.6	2.68671
13.61	2.69856
13.62	2.71468
13.63	2.70218
13.64	2.7206
13.65	2.74066
13.66	2.67981
13.67	2.70941
13.68	2.72718
13.69	2.72093
13.7	2.71435
13.71	2.7275
13.72	2.68935
13.73	2.67454
