"BIO-KINE ASCII FILE"
"_COMMENT"	"MOS-500 Spectrometer"
"_COMMENT"	"Kinetics measurement"
"_COMMENT"	"Y Unit : Volt,  X Unit : s"
"_COMMENT"	"Excitation wavelength : 380 nm"
"_COMMENT"	"Fentes bandwidth =  1 nm"
"_COMMENT"	"HV= 1000V"
"_COMMENT"	"Timebase  1 =  .01 s   5001 pts"
"_SFM"	"SFM-400 /S  Advanced mode"
"_SFM"	"Ratio : S1: 2.5, S2: 0, S3: 0, S4: 1"
"_SFM"	"Content : S1: , S2: , S3: , S4:"
"_SFM"	"Concentration : S1: , S2: , S3: , S4:"
"_SFM"	"Total volume : 209 µl  Flow : 3.5 mL/s"
"_SFM"	"Acquisition start :  10 ms before stop"
"_SFM"	"cuve=FC-15, s1=10 ml , s2=10 ml , s3=10 ml , s4=1.9 ml"
"_UNITX"	"s"
"_UNITY"	"Volt"
"_DELTAX"	0
"_DATA"
1e-300	2.90021
0.01	2.88179
0.02	2.86961
0.03	2.90942
0.04	2.95482
0.05	2.9808
0.06	3.00679
0.07	3.00909
0.08	3.03212
0.09	3.0785
0.1	3.07719
0.11	3.09232
0.12	3.0739
0.13	3.04298
0.14	3.08607
0.15	3.12752
0.16	3.10778
0.17	3.09133
0.18	3.08903
0.19	3.07258
0.2	3.09067
0.21	3.08706
0.22	3.07127
0.23	3.12554
0.24	3.13278
0.25	3.11271
0.26	3.091
0.27	3.11107
0.28	3.0864
0.29	3.14364
0.3	3.08048
0.31	3.09923
0.32	3.11864
0.33	3.11765
0.34	3.1216
0.35	3.09002
0.36	3.06337
0.37	3.10975
0.38	3.10943
0.39	3.11699
0.4	3.13081
0.41	3.1114
0.42	3.0966
0.43	3.09396
0.44	3.10943
0.45	3.0887
0.46	3.10811
0.47	3.09956
0.48	3.09561
0.49	3.10646
0.5	3.1262
0.51	3.09594
0.52	3.11403
0.53	3.10252
0.54	3.0966
0.55	3.09594
0.56	3.10515
0.57	3.07587
0.58	3.08113
0.59	3.08508
0.6	3.07752
0.61	3.06107
0.62	3.0841
0.63	3.10975
0.64	3.10943
0.65	3.08607
0.66	3.09923
0.67	3.07752
0.68	3.07916
0.69	3.09594
0.7	3.11436
0.71	3.12357
0.72	3.091
0.73	3.0785
0.74	3.08475
0.75	3.07488
0.76	3.09923
0.77	3.11666
0.78	3.10021
0.79	3.12193
0.8	3.12028
0.81	3.11304
0.82	3.08739
0.83	3.09791
0.84	3.07587
0.85	3.10087
0.86	3.07982
0.87	3.06008
0.88	3.09528
0.89	3.08804
0.9	3.07521
0.91	3.07225
0.92	3.07982
0.93	3.0864
0.94	3.08377
0.95	3.0966
0.96	3.07456
0.97	3.08377
0.98	3.12785
0.99	3.11765
1	3.09462
1.01	3.08377
1.02	3.08706
1.03	3.10614
1.04	3.07916
1.05	3.04199
1.06	3.09692
1.07	3.10778
1.08	3.10285
1.09	3.09923
1.1	3.09067
1.11	3.07258
1.12	3.09528
1.13	3.09824
1.14	3.11962
1.15	3.09923
1.16	3.07488
1.17	3.08804
1.18	3.11403
1.19	3.0785
1.2	3.07225
1.21	3.07686
1.22	3.06337
1.23	3.10087
1.24	3.11107
1.25	3.10778
1.26	3.08245
1.27	3.07883
1.28	3.05877
1.29	3.066
1.3	3.08739
1.31	3.09824
1.32	3.08212
1.33	3.05679
1.34	3.04363
1.35	3.09298
1.36	3.08311
1.37	3.05778
1.38	3.08837
1.39	3.01699
1.4	3.05153
1.41	3.07554
1.42	3.10219
1.43	3.08541
1.44	3.07752
1.45	3.066
1.46	3.06962
1.47	3.10186
1.48	3.06534
1.49	3.05548
1.5	3.06534
1.51	3.05877
1.52	3.06666
1.53	3.05416
1.54	3.05581
1.55	3.10153
1.56	3.07785
1.57	3.1035
1.58	3.11699
1.59	3.07686
1.6	3.04429
1.61	3.05811
1.62	3.0785
1.63	3.08475
1.64	3.1035
1.65	3.07423
1.66	3.0762
1.67	3.07488
1.68	3.05153
1.69	3.07258
1.7	3.12916
1.71	3.10021
1.72	3.066
1.73	3.05087
1.74	3.06765
1.75	3.04067
1.76	3.02324
1.77	3.04363
1.78	3.0387
1.79	3.09692
1.8	3.07653
1.81	3.06896
1.82	3.05548
1.83	3.05219
1.84	3.0364
1.85	3.05219
1.86	3.03705
1.87	3.06173
1.88	3.04627
1.89	3.05054
1.9	3.05449
1.91	3.04923
1.92	3.05942
1.93	3.07456
1.94	3.04133
1.95	3.03113
1.96	3.03673
1.97	3.07192
1.98	3.06337
1.99	3.0364
2	3.0785
2.01	3.04857
2.02	3.05416
2.03	3.03344
2.04	3.04594
2.05	3.06831
2.06	3.06929
2.07	3.06173
2.08	3.05975
2.09	3.04002
2.1	3.06041
2.11	3.05646
2.12	3.05317
2.13	3.02883
2.14	3.06304
2.15	3.06107
2.16	3.05054
2.17	3.0512
2.18	3.05778
2.19	3.04133
2.2	3.05942
2.21	3.05942
2.22	3.066
2.23	3.05054
2.24	3.04462
2.25	3.06271
2.26	3.02719
2.27	3.03936
2.28	3.03936
2.29	3.01534
2.3	3.04758
2.31	3.09791
2.32	3.04166
2.33	3.01765
2.34	3.02751
2.35	3.04692
2.36	3.07521
2.37	3.0785
2.38	3.04002
2.39	3.02883
2.4	3.0387
2.41	3.01633
2.42	3.01896
2.43	3.05515
2.44	3.07521
2.45	3.04166
2.46	3.08146
2.47	3.07423
2.48	3.04462
2.49	3.03113
2.5	3.06534
2.51	3.03837
2.52	3.02258
2.53	3.01699
2.54	3.03442
2.55	3.01863
2.56	3.06107
2.57	3.02126
2.58	3.02094
2.59	3.05087
2.6	3.02521
2.61	3.02817
2.62	3.04298
2.63	3.04824
2.64	3.03475
2.65	3.01469
2.66	3.02982
2.67	3.02686
2.68	3.03015
2.69	3.04561
2.7	3.0637
2.71	3.0285
2.72	3.0114
2.73	3.04528
2.74	3.03015
2.75	3.04988
2.76	3.03837
2.77	3.02817
2.78	3.04265
2.79	3.05909
2.8	3.03607
2.81	3.04791
2.82	3.00021
2.83	3.02751
2.84	3.02982
2.85	3.07653
2.86	3.03541
2.87	3.04692
2.88	3.01501
2.89	3.03541
2.9	3.05087
2.91	3.02324
2.92	3.03442
2.93	3.06271
2.94	3.04627
2.95	3.03344
2.96	3.03442
2.97	3.00186
2.98	3.01765
2.99	3.01469
3	3.05909
3.01	3.06633
3.02	3.02686
3.03	2.99495
3.04	3.02751
3.05	3.0614
3.06	2.99659
3.07	3.01929
3.08	3.01436
3.09	3.03771
3.1	3.04495
3.11	3.0308
3.12	3.05679
3.13	3.04034
3.14	3.03376
3.15	3.06074
3.16	3.0433
3.17	3.02587
3.18	3.02192
3.19	3.01436
3.2	3.03212
3.21	3.0285
3.22	3.07587
3.23	3.04528
3.24	3.02423
3.25	3.03344
3.26	3.01501
3.27	3.00482
3.28	3.00778
3.29	3.03771
3.3	3.0433
3.31	3.07028
3.32	3.04791
3.33	3.01699
3.34	3.00449
3.35	3.05383
3.36	3.01172
3.37	2.991
3.38	3.0183
3.39	3.01995
3.4	3.02982
3.41	3.03048
3.42	3.01863
3.43	3.0262
3.44	3.02784
3.45	3.04265
3.46	3.02061
3.47	3.03936
3.48	3.07357
3.49	3.03245
3.5	3.0285
3.51	3.01172
3.52	3.02982
3.53	3.06337
3.54	3.02126
3.55	3.02324
3.56	2.99692
3.57	3.00054
3.58	3.02982
3.59	3.01107
3.6	2.99791
3.61	3.02324
3.62	3.04561
3.63	3.01337
3.64	3.00547
3.65	3.01469
3.66	3.02192
3.67	3.00251
3.68	3.01666
3.69	2.99988
3.7	3.03442
3.71	3.02225
3.72	3.05087
3.73	2.9989
3.74	3.04692
3.75	3.016
3.76	3.04692
3.77	3.01567
3.78	3.00153
3.79	3.02488
3.8	3.02949
3.81	3.02521
3.82	3.00679
3.83	2.99297
3.84	3.02291
3.85	3.03541
3.86	3.03245
3.87	3.04002
3.88	3.02653
3.89	3.0137
3.9	3.03146
3.91	3.0035
3.92	3.03113
3.93	3.0535
3.94	3.02488
3.95	3.01041
3.96	3.04528
3.97	2.99824
3.98	3.00153
3.99	3.00547
4	3.00449
4.01	3.01699
4.02	3.04528
4.03	3.02357
4.04	3.03311
4.05	3.04199
4.06	3.03969
4.07	3.01534
4.08	3.00219
4.09	2.99988
4.1	2.99626
4.11	3.0364
4.12	2.98705
4.13	3.01896
4.14	3.016
4.15	3.01337
4.16	3.03936
4.17	3.03936
4.18	3.04002
4.19	3.01929
4.2	3.00515
4.21	2.99955
4.22	2.98212
4.23	3.01074
4.24	2.99462
4.25	2.99001
4.26	3.00186
4.27	3.00613
4.28	2.97751
4.29	3.02159
4.3	2.9887
4.31	3.03475
4.32	3.03179
4.33	3.02258
4.34	3.00153
4.35	3.00646
4.36	2.98376
4.37	3.00745
4.38	3.00383
4.39	3.02949
4.4	3.02817
4.41	3.01501
4.42	2.99166
4.43	3.01107
4.44	2.98968
4.45	3.00153
4.46	3.00021
4.47	3.00811
4.48	3.03311
4.49	3.02258
4.5	2.98541
4.51	3.02094
4.52	3.02982
4.53	3.02324
4.54	2.99922
4.55	3.01107
4.56	2.98442
4.57	3.02324
4.58	2.99791
4.59	3.00449
4.6	3.00054
4.61	2.99626
4.62	3.0183
4.63	3.01732
4.64	3.00186
4.65	2.99593
4.66	3.01238
4.67	2.96764
4.68	3.00909
4.69	2.97225
4.7	2.97225
4.71	3.03113
4.72	2.99725
4.73	3.0012
4.74	2.98541
4.75	2.99528
4.76	2.96403
4.77	2.98475
4.78	3.02587
4.79	3.00054
4.8	2.99462
4.81	3.0137
4.82	2.99297
4.83	3.01567
4.84	2.9933
4.85	2.99265
4.86	2.98771
4.87	3.01041
4.88	3.00811
4.89	2.99758
4.9	2.96797
4.91	2.97883
4.92	2.98179
4.93	2.99462
4.94	2.98837
4.95	2.95317
4.96	2.97061
4.97	2.95712
4.98	2.98409
4.99	2.97587
5	2.95416
5.01	2.95021
5.02	2.94988
5.03	2.98936
5.04	2.97686
5.05	3.00844
5.06	2.99265
5.07	3.0035
5.08	3.0058
5.09	2.99791
5.1	3.00712
5.11	2.96567
5.12	2.99133
5.13	3.00054
5.14	2.95745
5.15	2.99857
5.16	3.02587
5.17	3.02028
5.18	3.0012
5.19	2.99429
5.2	2.97225
5.21	2.98212
5.22	2.99363
5.23	3.0058
5.24	2.98771
5.25	2.96863
5.26	3.01107
5.27	2.97061
5.28	2.95679
5.29	2.97949
5.3	2.99725
5.31	2.96797
5.32	2.95218
5.33	2.97883
5.34	3.00219
5.35	2.99988
5.36	2.95284
5.37	2.95021
5.38	2.99659
5.39	2.99495
5.4	2.97126
5.41	2.97225
5.42	2.96896
5.43	3.00383
5.44	2.98574
5.45	2.97587
5.46	2.98804
5.47	3.01863
5.48	2.98278
5.49	2.95942
5.5	2.97093
5.51	3.00054
5.52	3.00087
5.53	2.97192
5.54	2.97028
5.55	2.9581
5.56	2.97192
5.57	2.98672
5.58	2.98245
5.59	3.00153
5.6	2.96797
5.61	2.96699
5.62	2.99067
5.63	2.97389
5.64	2.95514
5.65	2.96797
5.66	2.99034
5.67	2.96139
5.68	2.97291
5.69	2.99758
5.7	2.99462
5.71	2.97784
5.72	2.9558
5.73	2.95153
5.74	2.95778
5.75	2.93935
5.76	2.99067
5.77	2.98442
5.78	2.97718
5.79	2.94528
5.8	2.96764
5.81	3.0058
5.82	2.98409
5.83	2.96929
5.84	2.97686
5.85	2.97422
5.86	2.98968
5.87	2.97554
5.88	2.9683
5.89	2.96074
5.9	2.98541
5.91	2.94593
5.92	2.98442
5.93	3.00876
5.94	2.98212
5.95	2.98508
5.96	2.98146
5.97	2.96041
5.98	2.95482
5.99	2.97258
6	2.98541
6.01	2.96501
6.02	2.97126
6.03	2.99199
6.04	2.96995
6.05	2.99429
6.06	2.99659
6.07	2.98705
6.08	2.96501
6.09	2.96205
6.1	3.00449
6.11	2.99495
6.12	2.9581
6.13	2.95416
6.14	3.00317
6.15	2.94955
6.16	2.94067
6.17	2.97488
6.18	2.95153
6.19	2.98311
6.2	2.98409
6.21	2.9683
6.22	2.95876
6.23	2.94659
6.24	2.96896
6.25	2.99429
6.26	2.99495
6.27	3.00153
6.28	2.96435
6.29	3.00449
6.3	2.98376
6.31	2.95317
6.32	2.96172
6.33	2.99297
6.34	2.99232
6.35	2.95909
6.36	2.96139
6.37	2.96699
6.38	2.96534
6.39	2.97258
6.4	2.97488
6.41	2.98705
6.42	2.98705
6.43	2.99199
6.44	2.97061
6.45	2.96962
6.46	3.01238
6.47	2.98376
6.48	2.98607
6.49	2.97784
6.5	2.95185
6.51	3.01041
6.52	2.97521
6.53	2.97817
6.54	2.98903
6.55	2.94889
6.56	2.96139
6.57	2.96074
6.58	2.9864
6.59	3.00021
6.6	3.00679
6.61	2.95514
6.62	2.94725
6.63	2.966
6.64	2.97126
6.65	2.97061
6.66	2.98574
6.67	2.94758
6.68	2.96238
6.69	3.00679
6.7	2.94922
6.71	2.92718
6.72	2.9331
6.73	2.97982
6.74	2.96074
6.75	2.96304
6.76	2.9989
6.77	2.98409
6.78	2.96896
6.79	2.96172
6.8	2.97192
6.81	2.99034
6.82	2.96896
6.83	2.97061
6.84	2.99955
6.85	2.9581
6.86	2.94231
6.87	2.94889
6.88	2.991
6.89	2.98705
6.9	2.96304
6.91	2.96501
6.92	2.96567
6.93	2.95218
6.94	2.9683
6.95	2.92916
6.96	2.93705
6.97	2.96764
6.98	2.93672
6.99	2.97192
7	2.99001
7.01	2.96271
7.02	2.92685
7.03	2.94593
7.04	2.97192
7.05	2.95416
7.06	2.97653
7.07	2.9581
7.08	2.97554
7.09	2.96074
7.1	2.97784
7.11	2.95975
7.12	2.99034
7.13	2.95514
7.14	2.96929
7.15	2.99692
7.16	2.98804
7.17	2.97784
7.18	2.95909
7.19	2.93113
7.2	2.95021
7.21	2.94725
7.22	2.96534
7.23	2.97061
7.24	2.9762
7.25	2.96468
7.26	2.95317
7.27	2.9387
7.28	2.966
7.29	2.93212
7.3	2.95514
7.31	2.98047
7.32	2.96468
7.33	2.93245
7.34	2.93705
7.35	2.97817
7.36	2.98146
7.37	2.96567
7.38	2.941
7.39	2.95909
7.4	2.95087
7.41	2.95185
7.42	2.92652
7.43	2.94001
7.44	2.94034
7.45	2.95547
7.46	2.94626
7.47	2.94692
7.48	2.94528
7.49	2.96732
7.5	2.94659
7.51	2.97521
7.52	2.96139
7.53	2.96008
7.54	2.97587
7.55	2.96764
7.56	2.94067
7.57	2.94791
7.58	2.9989
7.59	2.94462
7.6	2.93047
7.61	2.96205
7.62	2.966
7.63	2.96699
7.64	2.97291
7.65	2.96468
7.66	2.93935
7.67	2.94692
7.68	2.92949
7.69	2.94495
7.7	2.93738
7.71	2.9456
7.72	2.93014
7.73	2.93705
7.74	2.94396
7.75	2.97324
7.76	2.95416
7.77	2.94297
7.78	2.95646
7.79	2.93705
7.8	2.94231
7.81	2.96008
7.82	2.9762
7.83	2.98771
7.84	2.96764
7.85	2.97422
7.86	2.94133
7.87	2.93179
7.88	2.94528
7.89	2.93179
7.9	2.90942
7.91	2.916
7.92	2.94856
7.93	2.99067
7.94	2.91731
7.95	2.92192
7.96	2.92718
7.97	2.9637
7.98	2.94791
7.99	2.94396
8	2.96403
8.01	2.94955
8.02	2.94593
8.03	2.94593
8.04	2.93705
8.05	2.941
8.06	2.94133
8.07	2.95153
8.08	2.96797
8.09	2.94758
8.1	2.94791
8.11	2.94955
8.12	2.95251
8.13	2.94363
8.14	2.96633
8.15	2.9433
8.16	2.94297
8.17	2.90777
8.18	2.92126
8.19	2.91863
8.2	2.91633
8.21	2.94396
8.22	2.92751
8.23	2.92159
8.24	2.96863
8.25	2.97225
8.26	2.96238
8.27	2.96074
8.28	2.95778
8.29	2.94692
8.3	2.93639
8.31	2.93442
8.32	2.98278
8.33	2.95383
8.34	2.9512
8.35	2.97258
8.36	2.97718
8.37	2.94166
8.38	2.98113
8.39	2.96962
8.4	2.9058
8.41	2.91106
8.42	2.94429
8.43	2.93047
8.44	2.92587
8.45	2.93376
8.46	2.89626
8.47	2.89922
8.48	2.92718
8.49	2.94856
8.5	2.90514
8.51	2.92652
8.52	2.95087
8.53	2.92225
8.54	2.94363
8.55	2.96172
8.56	2.95054
8.57	2.95843
8.58	2.93771
8.59	2.94034
8.6	2.96041
8.61	2.96567
8.62	2.92587
8.63	2.94297
8.64	2.91698
8.65	2.93014
8.66	2.94034
8.67	2.9331
8.68	2.94856
8.69	2.92981
8.7	2.96699
8.71	2.9637
8.72	2.94166
8.73	2.93705
8.74	2.93738
8.75	2.94593
8.76	2.94034
8.77	2.93277
8.78	2.90975
8.79	2.94889
8.8	2.95712
8.81	2.93343
8.82	2.92817
8.83	2.94922
8.84	2.92718
8.85	2.94166
8.86	2.93738
8.87	2.91402
8.88	2.96501
8.89	2.92192
8.9	2.9137
8.91	2.92751
8.92	2.94889
8.93	2.92751
8.94	2.90843
8.95	2.93409
8.96	2.9308
8.97	2.92389
8.98	2.93245
8.99	2.93047
9	2.91995
9.01	2.94462
9.02	2.93804
9.03	2.95054
9.04	2.90843
9.05	2.92981
9.06	2.93935
9.07	2.92883
9.08	2.90777
9.09	2.95284
9.1	2.94725
9.11	2.90448
9.12	2.92159
9.13	2.93245
9.14	2.93508
9.15	2.96929
9.16	2.93409
9.17	2.96468
9.18	2.93541
9.19	2.94824
9.2	2.95087
9.21	2.92389
9.22	2.92784
9.23	2.91008
9.24	2.90383
9.25	2.92027
9.26	2.95251
9.27	2.93903
9.28	2.92652
9.29	2.91534
9.3	2.94166
9.31	2.93508
9.32	2.91698
9.33	2.92751
9.34	2.9456
9.35	2.93409
9.36	2.93212
9.37	2.91041
9.38	2.96304
9.39	2.9512
9.4	2.92291
9.41	2.92455
9.42	2.91337
9.43	2.95021
9.44	2.94231
9.45	2.9558
9.46	2.90876
9.47	2.92093
9.48	2.93574
9.49	2.93245
9.5	2.95087
9.51	2.94856
9.52	2.93014
9.53	2.96403
9.54	2.95449
9.55	2.93705
9.56	2.9183
9.57	2.88376
9.58	2.93738
9.59	2.90909
9.6	2.91962
9.61	2.92488
9.62	2.92817
9.63	2.95054
9.64	2.91534
9.65	2.92291
9.66	2.94462
9.67	2.91666
9.68	2.89659
9.69	2.96172
9.7	2.94297
9.71	2.93837
9.72	2.91468
9.73	2.94528
9.74	2.91435
9.75	2.91731
9.76	2.92521
9.77	2.94396
9.78	2.92093
9.79	2.91962
9.8	2.93409
9.81	2.90975
9.82	2.90547
9.83	2.9285
9.84	2.96896
9.85	2.94593
9.86	2.93343
9.87	2.94462
9.88	2.9637
9.89	2.9285
9.9	2.8831
9.91	2.89955
9.92	2.91764
9.93	2.93014
9.94	2.88968
9.95	2.9456
9.96	2.9262
9.97	2.94231
9.98	2.93245
9.99	2.92817
10	2.89692
10.01	2.90087
10.02	2.92488
10.03	2.92389
10.04	2.91567
10.05	2.92422
10.06	2.92126
10.07	2.9262
10.08	2.94758
10.09	2.9762
10.1	2.92554
10.11	2.91172
10.12	2.92554
10.13	2.95021
10.14	2.92949
10.15	2.90284
10.16	2.92126
10.17	2.9206
10.18	2.94659
10.19	2.94659
10.2	2.92324
10.21	2.91271
10.22	2.96271
10.23	2.9387
10.24	2.9081
10.25	2.87554
10.26	2.88738
10.27	2.93508
10.28	2.95317
10.29	2.94231
10.3	2.94264
10.31	2.91106
10.32	2.9262
10.33	2.92389
10.34	2.91764
10.35	2.91633
10.36	2.91172
10.37	2.95021
10.38	2.93014
10.39	2.92916
10.4	2.90514
10.41	2.90317
10.42	2.89988
10.43	2.89429
10.44	2.90054
10.45	2.93837
10.46	2.92291
10.47	2.9137
10.48	2.92817
10.49	2.89725
10.5	2.93014
10.51	2.916
10.52	2.93672
10.53	2.93738
10.54	2.91567
10.55	2.93014
10.56	2.91698
10.57	2.90185
10.58	2.93935
10.59	2.93804
10.6	2.89955
10.61	2.91896
10.62	2.9183
10.63	2.916
10.64	2.88277
10.65	2.9285
10.66	2.9387
10.67	2.93968
10.68	2.89988
10.69	2.90021
10.7	2.90087
10.71	2.92521
10.72	2.93277
10.73	2.94659
10.74	2.93146
10.75	2.95251
10.76	2.94922
10.77	2.93277
10.78	2.90712
10.79	2.91896
10.8	2.94528
10.81	2.93705
10.82	2.94396
10.83	2.89758
10.84	2.89955
10.85	2.91633
10.86	2.93212
10.87	2.93475
10.88	2.9308
10.89	2.91172
10.9	2.91731
10.91	2.92159
10.92	2.89659
10.93	2.92258
10.94	2.9058
10.95	2.92159
10.96	2.91929
10.97	2.94593
10.98	2.92126
10.99	2.93738
11	2.93541
11.01	2.96107
11.02	2.95482
11.03	2.92159
11.04	2.92488
11.05	2.92324
11.06	2.92258
11.07	2.89856
11.08	2.86534
11.09	2.88705
11.1	2.92455
11.11	2.94199
11.12	2.93968
11.13	2.91567
11.14	2.93047
11.15	2.9581
11.16	2.93277
11.17	2.90251
11.18	2.91501
11.19	2.91106
11.2	2.92422
11.21	2.91666
11.22	2.92126
11.23	2.91962
11.24	2.90712
11.25	2.94396
11.26	2.91271
11.27	2.91962
11.28	2.9206
11.29	2.90843
11.3	2.92883
11.31	2.93508
11.32	2.92192
11.33	2.89922
11.34	2.88212
11.35	2.91139
11.36	2.92126
11.37	2.9035
11.38	2.92455
11.39	2.94067
11.4	2.91106
11.41	2.90514
11.42	2.91567
11.43	2.91731
11.44	2.91863
11.45	2.93376
11.46	2.94363
11.47	2.9262
11.48	2.90087
11.49	2.89067
11.5	2.93541
11.51	2.90284
11.52	2.90909
11.53	2.89166
11.54	2.9262
11.55	2.91797
11.56	2.92258
11.57	2.90909
11.58	2.90777
11.59	2.91271
11.6	2.92258
11.61	2.93475
11.62	2.941
11.63	2.93968
11.64	2.93245
11.65	2.94067
11.66	2.92455
11.67	2.92291
11.68	2.91073
11.69	2.91172
11.7	2.92159
11.71	2.90383
11.72	2.93804
11.73	2.93639
11.74	2.89593
11.75	2.90646
11.76	2.9308
11.77	2.90317
11.78	2.89429
11.79	2.9035
11.8	2.91337
11.81	2.90909
11.82	2.90613
11.83	2.91435
11.84	2.88113
11.85	2.89922
11.86	2.89758
11.87	2.90547
11.88	2.89692
11.89	2.90843
11.9	2.92093
11.91	2.88343
11.92	2.90119
11.93	2.89791
11.94	2.90547
11.95	2.92981
11.96	2.92093
11.97	2.90284
11.98	2.89692
11.99	2.88376
12	2.91041
12.01	2.91633
12.02	2.90218
12.03	2.91008
12.04	2.90218
12.05	2.91501
12.06	2.89264
12.07	2.9387
12.08	2.92324
12.09	2.89494
12.1	2.9035
12.11	2.92389
12.12	2.94034
12.13	2.91764
12.14	2.9183
12.15	2.9137
12.16	2.89856
12.17	2.89198
12.18	2.92652
12.19	2.95317
12.2	2.93837
12.21	2.89659
12.22	2.88014
12.23	2.90054
12.24	2.92192
12.25	2.90218
12.26	2.90745
12.27	2.89133
12.28	2.88804
12.29	2.87587
12.3	2.88672
12.31	2.89462
12.32	2.91008
12.33	2.88244
12.34	2.90119
12.35	2.89001
12.36	2.89988
12.37	2.89988
12.38	2.89791
12.39	2.90712
12.4	2.9262
12.41	2.91666
12.42	2.89034
12.43	2.91698
12.44	2.94396
12.45	2.9387
12.46	2.87817
12.47	2.92718
12.48	2.89823
12.49	2.90481
12.5	2.89955
12.51	2.90119
12.52	2.92126
12.53	2.89988
12.54	2.90218
12.55	2.91896
12.56	2.90942
12.57	2.89659
12.58	2.88113
12.59	2.90021
12.6	2.89527
12.61	2.93277
12.62	2.90152
12.63	2.91567
12.64	2.88475
12.65	2.89988
12.66	2.92126
12.67	2.90843
12.68	2.88837
12.69	2.88639
12.7	2.88804
12.71	2.88738
12.72	2.88508
12.73	2.93113
12.74	2.93343
12.75	2.89198
12.76	2.8956
12.77	2.91995
12.78	2.90942
12.79	2.88442
12.8	2.891
12.81	2.89527
12.82	2.91731
12.83	2.91731
12.84	2.86961
12.85	2.89692
12.86	2.90218
12.87	2.90514
12.88	2.90087
12.89	2.90481
12.9	2.91073
12.91	2.91764
12.92	2.9308
12.93	2.95547
12.94	2.89593
12.95	2.9137
12.96	2.90547
12.97	2.90777
12.98	2.88639
12.99	2.90646
13	2.91633
13.01	2.9308
13.02	2.88475
13.03	2.89758
13.04	2.88508
13.05	2.88409
13.06	2.89198
13.07	2.9035
13.08	2.90745
13.09	2.88738
13.1	2.88672
13.11	2.90284
13.12	2.91106
13.13	2.92554
13.14	2.9058
13.15	2.89791
13.16	2.91698
13.17	2.89133
13.18	2.85711
13.19	2.91172
13.2	2.89001
13.21	2.88606
13.22	2.90777
13.23	2.88902
13.24	2.90185
13.25	2.89823
13.26	2.91962
13.27	2.87587
13.28	2.89856
13.29	2.89396
13.3	2.87784
13.31	2.88442
13.32	2.91764
13.33	2.89725
13.34	2.89166
13.35	2.88837
13.36	2.86567
13.37	2.92455
13.38	2.90416
13.39	2.90416
13.4	2.8831
13.41	2.88639
13.42	2.866
13.43	2.88146
13.44	2.9081
13.45	2.88935
13.46	2.89462
13.47	2.91962
13.48	2.89889
13.49	2.89725
13.5	2.89133
13.51	2.94692
13.52	2.92192
13.53	2.89067
13.54	2.92324
13.55	2.92159
13.56	2.89494
13.57	2.8854
13.58	2.86633
13.59	2.92027
13.6	2.87455
13.61	2.86172
13.62	2.891
13.63	2.91205
13.64	2.88442
13.65	2.91534
13.66	2.86369
13.67	2.90942
13.68	2.90646
13.69	2.9206
13.7	2.91008
13.71	2.90876
13.72	2.90119
13.73	2.88343
13.74	2.91337
13.75	2.92883
