"BIO-KINE ASCII FILE"
"_COMMENT"	"MOS-500 Spectrometer"
"_COMMENT"	"Kinetics measurement"
"_COMMENT"	"Y Unit : Volt,  X Unit : s"
"_COMMENT"	"Excitation wavelength : 380 nm"
"_COMMENT"	"Fentes bandwidth =  1 nm"
"_COMMENT"	"HV= 850V"
"_COMMENT"	"Timebase  1 =  .01 s   3001 pts"
"_SFM"	"SFM-400 /S  Advanced mode"
"_SFM"	"Ratio : S1: 2.5, S2: 0, S3: 0, S4: 1"
"_SFM"	"Content : S1: , S2: , S3: , S4:"
"_SFM"	"Concentration : S1: , S2: , S3: , S4:"
"_SFM"	"Total volume : 209 µl  Flow : 3.5 mL/s"
"_SFM"	"Acquisition start :  10 ms before stop"
"_SFM"	"cuve=FC-15, s1=10 ml , s2=10 ml , s3=10 ml , s4=1.9 ml"
"_UNITX"	"s"
"_UNITY"	"Volt"
"_DELTAX"	0
"_DATA"
1e-300	8.97966
0.01	9.72276
0.02	9.91454
0.03	9.91717
0.04	9.95763
0.05	9.9448
0.06	9.96652
0.07	9.97606
0.08	9.93099
0.09	9.92178
0.1	9.93823
0.11	9.94382
0.12	9.97934
0.13	9.99711
0.14	9.92638
0.15	9.91257
0.16	9.92211
0.17	9.97013
0.18	9.96323
0.19	9.94941
0.2	9.92605
0.21	9.93099
0.22	9.93165
0.23	9.92803
0.24	9.92902
0.25	9.92803
0.26	9.89612
0.27	9.91684
0.28	9.90533
0.29	9.89645
0.3	9.89908
0.31	9.92803
0.32	9.91257
0.33	9.89283
0.34	9.86717
0.35	9.86257
0.36	9.87638
0.37	9.84447
0.38	9.86158
0.39	9.86191
0.4	9.83132
0.41	9.82145
0.42	9.79217
0.43	9.79612
0.44	9.81158
0.45	9.77408
0.46	9.78099
0.47	9.79579
0.48	9.81322
0.49	9.78362
0.5	9.7675
0.51	9.76322
0.52	9.76684
0.53	9.76224
0.54	9.76454
0.55	9.74875
0.56	9.7448
0.57	9.75533
0.58	9.74612
0.59	9.74085
0.6	9.74579
0.61	9.70862
0.62	9.705
0.63	9.71684
0.64	9.67934
0.65	9.66585
0.66	9.67967
0.67	9.6846
0.68	9.67704
0.69	9.66059
0.7	9.64546
0.71	9.63921
0.72	9.63559
0.73	9.63789
0.74	9.62276
0.75	9.62111
0.76	9.61388
0.77	9.60039
0.78	9.57243
0.79	9.55236
0.8	9.61322
0.81	9.62769
0.82	9.56289
0.83	9.54842
0.84	9.54414
0.85	9.54118
0.86	9.55269
0.87	9.52835
0.88	9.53164
0.89	9.53032
0.9	9.49677
0.91	9.54447
0.92	9.52539
0.93	9.50138
0.94	9.50138
0.95	9.48197
0.96	9.4767
0.97	9.49282
0.98	9.46651
0.99	9.47802
1	9.47013
1.01	9.46552
1.02	9.43953
1.03	9.41683
1.04	9.4494
1.05	9.41486
1.06	9.4119
1.07	9.42999
1.08	9.42341
1.09	9.41486
1.1	9.42736
1.11	9.39512
1.12	9.38558
1.13	9.38953
1.14	9.41157
1.15	9.34348
1.16	9.35269
1.17	9.36947
1.18	9.36058
1.19	9.34282
1.2	9.35039
1.21	9.33131
1.22	9.32012
1.23	9.33295
1.24	9.31815
1.25	9.29775
1.26	9.31354
1.27	9.29578
1.28	9.31321
1.29	9.30236
1.3	9.26946
1.31	9.28657
1.32	9.25466
1.33	9.25038
1.34	9.24907
1.35	9.22177
1.36	9.20729
1.37	9.22933
1.38	9.22703
1.39	9.22834
1.4	9.23098
1.41	9.19841
1.42	9.19183
1.43	9.20532
1.44	9.20137
1.45	9.18821
1.46	9.204
1.47	9.16519
1.48	9.15236
1.49	9.10564
1.5	9.15795
1.51	9.14183
1.52	9.12867
1.53	9.15367
1.54	9.13887
1.55	9.12571
1.56	9.13722
1.57	9.14545
1.58	9.0938
1.59	9.0961
1.6	9.06156
1.61	9.04413
1.62	9.05433
1.63	9.04084
1.64	9.04314
1.65	9.04775
1.66	9.06716
1.67	9.05202
1.68	9.00729
1.69	9.01156
1.7	9.00827
1.71	9.0086
1.72	9.02242
1.73	9.02275
1.74	9.01058
1.75	8.97998
1.76	8.98294
1.77	8.94873
1.78	8.95334
1.79	8.92538
1.8	8.95235
1.81	8.95597
1.82	8.95433
1.83	8.92965
1.84	8.9234
1.85	8.92538
1.86	8.93064
1.87	8.92373
1.88	8.904
1.89	8.89084
1.9	8.8688
1.91	8.84972
1.92	8.86748
1.93	8.89676
1.94	8.87801
1.95	8.83623
1.96	8.82406
1.97	8.83722
1.98	8.83459
1.99	8.85169
2	8.85728
2.01	8.85696
2.02	8.83426
2.03	8.80695
2.04	8.78886
2.05	8.80005
2.06	8.7859
2.07	8.81945
2.08	8.80366
2.09	8.77603
2.1	8.7734
2.11	8.74445
2.12	8.74347
2.13	8.75333
2.14	8.74544
2.15	8.7507
2.16	8.73393
2.17	8.71715
2.18	8.73393
2.19	8.73985
2.2	8.76616
2.21	8.74807
2.22	8.68689
2.23	8.64412
2.24	8.67965
2.25	8.68491
2.26	8.70761
2.27	8.68524
2.28	8.68656
2.29	8.64379
2.3	8.66649
2.31	8.65465
2.32	8.64807
2.33	8.64445
2.34	8.61353
2.35	8.63688
2.36	8.6155
2.37	8.61188
2.38	8.59544
2.39	8.57734
2.4	8.60859
2.41	8.63425
2.42	8.58984
2.43	8.58096
2.44	8.55958
2.45	8.56484
2.46	8.56155
2.47	8.56024
2.48	8.51188
2.49	8.51616
2.5	8.52636
2.51	8.54576
2.52	8.52274
2.53	8.52471
2.54	8.50859
2.55	8.48589
2.56	8.49149
2.57	8.4882
2.58	8.48425
2.59	8.478
2.6	8.48886
2.61	8.45497
2.62	8.45925
2.63	8.46484
2.64	8.45497
2.65	8.42471
2.66	8.4632
2.67	8.428
2.68	8.41616
2.69	8.41649
2.7	8.40958
2.71	8.40991
2.72	8.40168
2.73	8.3882
2.74	8.40398
2.75	8.38162
2.76	8.3428
2.77	8.38523
2.78	8.36122
2.79	8.35629
2.8	8.34115
2.81	8.36583
2.82	8.36188
2.83	8.33819
2.84	8.33326
2.85	8.35629
2.86	8.33194
2.87	8.33227
2.88	8.31582
2.89	8.28984
2.9	8.31319
2.91	8.3076
2.92	8.29543
2.93	8.27405
2.94	8.26648
2.95	8.26418
2.96	8.27043
2.97	8.26221
2.98	8.24411
2.99	8.22997
3	8.2576
3.01	8.25661
3.02	8.25661
3.03	8.24313
3.04	8.24477
3.05	8.22602
3.06	8.20201
3.07	8.22438
3.08	8.19049
3.09	8.20036
3.1	8.17701
3.11	8.1803
3.12	8.20332
3.13	8.20398
3.14	8.19345
3.15	8.15562
3.16	8.15431
3.17	8.16286
3.18	8.13161
3.19	8.1349
3.2	8.17799
3.21	8.13885
3.22	8.11319
3.23	8.13161
3.24	8.12832
3.25	8.1099
3.26	8.12799
3.27	8.09575
3.28	8.11878
3.29	8.11187
3.3	8.07536
3.31	8.08556
3.32	8.0599
3.33	8.0474
3.34	8.06911
3.35	8.02503
3.36	8.07602
3.37	8.04806
3.38	8.06187
3.39	8.07075
3.4	8.01944
3.41	8.02042
3.42	8.03358
3.43	8.05003
3.44	8.02963
3.45	8.02733
3.46	8.02931
3.47	8.02536
3.48	8.01878
3.49	8.01812
3.5	8.00036
3.51	7.99805
3.52	8.00792
3.53	7.97009
3.54	7.98161
3.55	7.99213
3.56	7.94246
3.57	7.93457
3.58	7.93193
3.59	7.94147
3.6	7.91943
3.61	7.93358
3.62	7.95266
3.63	7.91614
3.64	7.90628
3.65	7.91417
3.66	7.91187
3.67	7.88259
3.68	7.90562
3.69	7.87371
3.7	7.87141
3.71	7.87634
3.72	7.84706
3.73	7.84509
3.74	7.83292
3.75	7.87305
3.76	7.83621
3.77	7.86516
3.78	7.83062
3.79	7.82766
3.8	7.85627
3.81	7.8372
3.82	7.81976
3.83	7.79443
3.84	7.80759
3.85	7.79969
3.86	7.79048
3.87	7.7941
3.88	7.76877
3.89	7.80101
3.9	7.79279
3.91	7.75726
3.92	7.74739
3.93	7.76417
3.94	7.73226
3.95	7.73588
3.96	7.7395
3.97	7.74377
3.98	7.74476
3.99	7.75265
4	7.69542
4.01	7.76022
4.02	7.71417
4.03	7.72996
4.04	7.69377
4.05	7.71548
4.06	7.71417
4.07	7.70989
4.08	7.70923
4.09	7.66022
4.1	7.69114
4.11	7.67995
4.12	7.65923
4.13	7.64969
4.14	7.64015
4.15	7.6487
4.16	7.63291
4.17	7.6237
4.18	7.65824
4.19	7.65857
4.2	7.63193
4.21	7.6566
4.22	7.64114
4.23	7.6464
4.24	7.61548
4.25	7.60298
4.26	7.62173
4.27	7.58291
4.28	7.59804
4.29	7.6066
4.3	7.58785
4.31	7.57798
4.32	7.60232
4.33	7.57831
4.34	7.56383
4.35	7.54311
4.36	7.56054
4.37	7.57699
4.38	7.5635
4.39	7.55758
4.4	7.52929
4.41	7.55627
4.42	7.55857
4.43	7.51581
4.44	7.52173
4.45	7.51581
4.46	7.51416
4.47	7.51515
4.48	7.49245
4.49	7.47666
4.5	7.51778
4.51	7.51383
4.52	7.48061
4.53	7.47205
4.54	7.46679
4.55	7.47074
4.56	7.46087
4.57	7.43455
4.58	7.44015
4.59	7.46153
4.6	7.4612
4.61	7.49475
4.62	7.44607
4.63	7.42172
4.64	7.41021
4.65	7.42041
4.66	7.42962
4.67	7.42896
4.68	7.46317
4.69	7.47469
4.7	7.4385
4.71	7.42172
4.72	7.40363
4.73	7.40758
4.74	7.38916
4.75	7.38982
4.76	7.41613
4.77	7.38357
4.78	7.36317
4.79	7.37008
4.8	7.35824
4.81	7.37074
4.82	7.37863
4.83	7.37074
4.84	7.36416
4.85	7.37107
4.86	7.37205
4.87	7.35462
4.88	7.33949
4.89	7.35034
4.9	7.32402
4.91	7.33488
4.92	7.36646
4.93	7.34475
4.94	7.33455
4.95	7.33291
4.96	7.32337
4.97	7.29212
4.98	7.29014
4.99	7.30429
5	7.26054
5.01	7.27238
5.02	7.27797
5.03	7.27008
5.04	7.29113
5.05	7.25955
5.06	7.25593
5.07	7.27764
5.08	7.24705
5.09	7.27633
5.1	7.27994
5.11	7.26383
5.12	7.25001
5.13	7.24836
5.14	7.23981
5.15	7.25396
5.16	7.26218
5.17	7.25067
5.18	7.24146
5.19	7.20527
5.2	7.20428
5.21	7.17665
5.22	7.19014
5.23	7.21218
5.24	7.19968
5.25	7.19146
5.26	7.20593
5.27	7.18192
5.28	7.1658
5.29	7.19343
5.3	7.15856
5.31	7.17501
5.32	7.18652
5.33	7.18685
5.34	7.18652
5.35	7.17764
5.36	7.17336
5.37	7.16218
5.38	7.15428
5.39	7.12205
5.4	7.12106
5.41	7.11481
5.42	7.14014
5.43	7.13422
5.44	7.10494
5.45	7.11777
5.46	7.12566
5.47	7.12172
5.48	7.08685
5.49	7.10297
5.5	7.12303
5.51	7.10165
5.52	7.11744
5.53	7.09902
5.54	7.0977
5.55	7.10231
5.56	7.10165
5.57	7.05494
5.58	7.05757
5.59	7.07303
5.6	7.08882
5.61	7.05658
5.62	7.04935
5.63	7.05856
5.64	7.03718
5.65	7.05066
5.66	7.03323
5.67	7.05
5.68	7.04277
5.69	7.01711
5.7	7.0454
5.71	7.04704
5.72	7.03783
5.73	7.02566
5.74	7.01744
5.75	7.00494
5.76	7.02171
5.77	6.99869
5.78	6.99211
5.79	7.01481
5.8	7.01053
5.81	6.97566
5.82	6.98619
5.83	6.97994
5.84	6.99277
5.85	6.99737
5.86	6.99112
5.87	7.00066
5.88	6.97731
5.89	6.97566
5.9	6.98356
5.91	6.95724
5.92	6.97402
5.93	6.98652
5.94	6.97895
5.95	6.94507
5.96	6.94375
5.97	6.94145
5.98	6.93651
5.99	6.91776
6	6.91809
6.01	6.9273
6.02	6.92369
6.03	6.91941
6.04	6.90559
6.05	6.93388
6.06	6.90822
6.07	6.90691
6.08	6.8977
6.09	6.90954
6.1	6.90263
6.11	6.88947
6.12	6.92467
6.13	6.90132
6.14	6.89474
6.15	6.85
6.16	6.87895
6.17	6.86513
6.18	6.86546
6.19	6.85625
6.2	6.86809
6.21	6.8625
6.22	6.84868
6.23	6.85362
6.24	6.84375
6.25	6.86776
6.26	6.86513
6.27	6.8625
6.28	6.84309
6.29	6.81349
6.3	6.82467
6.31	6.81217
6.32	6.83026
6.33	6.8148
6.34	6.81941
6.35	6.78783
6.36	6.7921
6.37	6.82171
6.38	6.81283
6.39	6.8
6.4	6.80164
6.41	6.77993
6.42	6.79441
6.43	6.8023
6.44	6.77763
6.45	6.79342
6.46	6.76579
6.47	6.80395
6.48	6.77664
6.49	6.75592
6.5	6.76546
6.51	6.78947
6.52	6.775
6.53	6.7694
6.54	6.74506
6.55	6.72861
6.56	6.74342
6.57	6.71875
6.58	6.74276
6.59	6.74309
6.6	6.74177
6.61	6.76052
6.62	6.73684
6.63	6.71019
6.64	6.72829
6.65	6.73618
6.66	6.72434
6.67	6.71118
6.68	6.71875
6.69	6.70723
6.7	6.69736
6.71	6.70032
6.72	6.69309
6.73	6.69473
6.74	6.68651
6.75	6.70065
6.76	6.69407
6.77	6.68684
6.78	6.70723
6.79	6.67532
6.8	6.68486
6.81	6.69769
6.82	6.69671
6.83	6.64045
6.84	6.62828
6.85	6.68256
6.86	6.67039
6.87	6.6546
6.88	6.64177
6.89	6.64901
6.9	6.66447
6.91	6.66184
6.92	6.65361
6.93	6.65197
6.94	6.6717
6.95	6.64078
6.96	6.65328
6.97	6.65493
6.98	6.64966
6.99	6.62269
7	6.62401
7.01	6.60756
7.02	6.64638
7.03	6.64736
7.04	6.63914
7.05	6.64045
7.06	6.61907
7.07	6.59374
7.08	6.63453
7.09	6.59341
7.1	6.60295
7.11	6.59835
7.12	6.59605
7.13	6.58651
7.14	6.58848
7.15	6.58947
7.16	6.59045
7.17	6.58947
7.18	6.58782
7.19	6.59605
7.2	6.58124
7.21	6.57598
7.22	6.57137
7.23	6.58979
7.24	6.58651
7.25	6.59736
7.26	6.61118
7.27	6.57039
7.28	6.52927
7.29	6.57137
7.3	6.58322
7.31	6.57302
7.32	6.57565
7.33	6.549
7.34	6.55789
7.35	6.56282
7.36	6.56183
7.37	6.53223
7.38	6.51907
7.39	6.51315
7.4	6.52795
7.41	6.52433
7.42	6.51973
7.43	6.52696
7.44	6.5217
7.45	6.51052
7.46	6.50591
7.47	6.50788
7.48	6.51216
7.49	6.48881
7.5	6.51742
7.51	6.50427
7.52	6.48584
7.53	6.499
7.54	6.53058
7.55	6.5069
7.56	6.50229
7.57	6.46084
7.58	6.50065
7.59	6.49012
7.6	6.47302
7.61	6.46907
7.62	6.49045
7.63	6.47663
7.64	6.46874
7.65	6.45262
7.66	6.46084
7.67	6.4717
7.68	6.47137
7.69	6.46742
7.7	6.46512
7.71	6.46479
7.72	6.45328
7.73	6.449
7.74	6.42301
7.75	6.44801
7.76	6.44736
7.77	6.41084
7.78	6.43815
7.79	6.43255
7.8	6.46644
7.81	6.42005
7.82	6.42861
7.83	6.43288
7.84	6.4444
7.85	6.42926
7.86	6.43058
7.87	6.41512
7.88	6.4138
7.89	6.42565
7.9	6.4217
7.91	6.40854
7.92	6.40558
7.93	6.41676
7.94	6.40953
7.95	6.38354
7.96	6.39374
7.97	6.39801
7.98	6.39143
7.99	6.38058
8	6.37696
8.01	6.40492
8.02	6.40887
8.03	6.41117
8.04	6.37696
8.05	6.3717
8.06	6.37137
8.07	6.38485
8.08	6.36249
8.09	6.36907
8.1	6.41282
8.11	6.35064
8.12	6.33979
8.13	6.36051
8.14	6.36249
8.15	6.39143
8.16	6.36018
8.17	6.34999
8.18	6.36841
8.19	6.35656
8.2	6.36874
8.21	6.36874
8.22	6.34834
8.23	6.33518
8.24	6.33189
8.25	6.34505
8.26	6.34439
8.27	6.34604
8.28	6.33518
8.29	6.33749
8.3	6.32433
8.31	6.32235
8.32	6.34439
8.33	6.32926
8.34	6.31413
8.35	6.31314
8.36	6.30163
8.37	6.29834
8.38	6.28979
8.39	6.324
8.4	6.31709
8.41	6.29933
8.42	6.28617
8.43	6.2786
8.44	6.29406
8.45	6.31018
8.46	6.26873
8.47	6.31545
8.48	6.32137
8.49	6.28584
8.5	6.27926
8.51	6.29308
8.52	6.28551
8.53	6.29801
8.54	6.27893
8.55	6.26939
8.56	6.3161
8.57	6.28025
8.58	6.28518
8.59	6.27663
8.6	6.29571
8.61	6.26939
8.62	6.27696
8.63	6.28617
8.64	6.27334
8.65	6.28518
8.66	6.29242
8.67	6.24636
8.68	6.25919
8.69	6.25163
8.7	6.25656
8.71	6.26018
8.72	6.26939
8.73	6.25722
8.74	6.26775
8.75	6.24406
8.76	6.26183
8.77	6.23485
8.78	6.24998
8.79	6.24439
8.8	6.25788
8.81	6.26643
8.82	6.2559
8.83	6.24867
8.84	6.22564
8.85	6.21775
8.86	6.21084
8.87	6.24275
8.88	6.22301
8.89	6.24307
8.9	6.24636
8.91	6.224
8.92	6.23814
8.93	6.21873
8.94	6.22597
8.95	6.2184
8.96	6.22432
8.97	6.21577
8.98	6.20788
8.99	6.21709
9	6.20163
9.01	6.2013
9.02	6.22498
9.03	6.21544
9.04	6.19867
9.05	6.20919
9.06	6.17498
9.07	6.20163
9.08	6.19472
9.09	6.19965
9.1	6.18288
9.11	6.20163
9.12	6.21117
9.13	6.20755
9.14	6.18485
9.15	6.18584
9.16	6.18255
9.17	6.1832
9.18	6.18584
9.19	6.18024
9.2	6.21478
9.21	6.17827
9.22	6.16676
9.23	6.16774
9.24	6.14998
9.25	6.19505
9.26	6.17103
9.27	6.17235
9.28	6.16972
9.29	6.17399
9.3	6.13649
9.31	6.14307
9.32	6.13123
9.33	6.14143
9.34	6.13945
9.35	6.14768
9.36	6.17531
9.37	6.1707
9.38	6.16709
9.39	6.15722
9.4	6.13518
9.41	6.12991
9.42	6.13518
9.43	6.16215
9.44	6.14439
9.45	6.12498
9.46	6.12695
9.47	6.12958
9.48	6.13847
9.49	6.1536
9.5	6.12564
9.51	6.13386
9.52	6.11643
9.53	6.12136
9.54	6.12169
9.55	6.12037
9.56	6.11511
9.57	6.13583
9.58	6.12695
9.59	6.12432
9.6	6.1559
9.61	6.11939
9.62	6.09702
9.63	6.13583
9.64	6.12958
9.65	6.12103
9.66	6.11774
9.67	6.11248
9.68	6.11972
9.69	6.13616
9.7	6.13583
9.71	6.0855
9.72	6.09768
9.73	6.11445
9.74	6.09735
9.75	6.09932
9.76	6.10689
9.77	6.09208
9.78	6.08715
9.79	6.10294
9.8	6.08583
9.81	6.09504
9.82	6.09866
9.83	6.07169
9.84	6.07465
9.85	6.08221
9.86	6.09077
9.87	6.07268
9.88	6.09143
9.89	6.08814
9.9	6.10623
9.91	6.07827
9.92	6.07564
9.93	6.04899
9.94	6.06807
9.95	6.06478
9.96	6.05458
9.97	6.05919
9.98	6.09208
9.99	6.07794
10	6.06544
10.01	6.05425
10.02	6.07925
10.03	6.08485
10.04	6.06379
10.05	6.06346
10.06	6.05919
10.07	6.05228
10.08	6.03287
10.09	6.06873
10.1	6.03485
10.11	6.05919
10.12	6.03221
10.13	6.05853
10.14	6.03813
10.15	6.03616
10.16	6.03879
10.17	6.02629
10.18	6.07465
10.19	6.05689
10.2	6.03748
10.21	6.05031
10.22	6.03682
10.23	6.02136
10.24	6.02333
10.25	6.06149
10.26	6.04833
10.27	6.01807
10.28	6.02859
10.29	6.01774
10.3	6.02465
10.31	6.01642
10.32	6.02958
10.33	6.04274
10.34	6.03024
10.35	6.023
10.36	6.04142
10.37	6.01544
10.38	6.02004
10.39	6.01116
10.4	6.01478
10.41	6.02169
10.42	5.99307
10.43	6.00853
10.44	6.0207
10.45	5.99307
10.46	5.99636
10.47	5.99965
10.48	5.98715
10.49	6.00458
10.5	6.02333
10.51	6.00952
10.52	6.0059
10.53	6.00359
10.54	5.98945
10.55	5.97794
10.56	6.00787
10.57	6.02037
10.58	5.97432
10.59	5.97629
10.6	5.99405
10.61	5.99932
10.62	5.98123
10.63	5.9832
10.64	5.973
10.65	5.96379
10.66	5.98221
10.67	5.9684
10.68	5.97267
10.69	5.9684
10.7	5.97366
10.71	5.99504
10.72	5.98945
10.73	5.9503
10.74	5.96938
10.75	5.96017
10.76	5.96774
10.77	5.97958
10.78	5.96149
10.79	5.9684
10.8	5.97234
10.81	5.98386
10.82	5.99011
10.83	5.96379
10.84	5.96083
10.85	5.9582
10.86	5.95622
10.87	5.99405
10.88	5.98451
10.89	5.97925
10.9	5.9684
10.91	5.94011
10.92	5.94372
10.93	5.95261
10.94	5.94372
10.95	5.94405
10.96	5.94899
10.97	5.96313
10.98	5.93517
10.99	5.93221
11	5.95359
11.01	5.96412
11.02	5.95063
11.03	5.94142
11.04	5.96313
11.05	5.948
11.06	5.94438
11.07	5.93912
11.08	5.94405
11.09	5.94997
11.1	5.95195
11.11	5.94142
11.12	5.91017
11.13	5.93616
11.14	5.93813
11.15	5.95655
11.16	5.95162
11.17	5.93945
11.18	5.95886
11.19	5.93188
11.2	5.94997
11.21	5.93978
11.22	5.94603
11.23	5.9503
11.24	5.93879
11.25	5.93254
11.26	5.92234
11.27	5.9151
11.28	5.92464
11.29	5.92366
11.3	5.96083
11.31	5.9582
11.32	5.92728
11.33	5.923
11.34	5.91708
11.35	5.89438
11.36	5.8901
11.37	5.89931
11.38	5.9105
11.39	5.92859
11.4	5.93714
11.41	5.91872
11.42	5.90458
11.43	5.93089
11.44	5.90918
11.45	5.90458
11.46	5.90228
11.47	5.91872
11.48	5.90787
11.49	5.91083
11.5	5.87135
11.51	5.89833
11.52	5.89635
11.53	5.88451
11.54	5.91116
11.55	5.8878
11.56	5.8957
11.57	5.89899
11.58	5.88681
11.59	5.89635
11.6	5.91313
11.61	5.9003
11.62	5.90096
11.63	5.89043
11.64	5.87596
11.65	5.89734
11.66	5.89438
11.67	5.89767
11.68	5.86576
11.69	5.87925
11.7	5.87234
11.71	5.8957
11.72	5.89537
11.73	5.88385
11.74	5.88912
11.75	5.89142
11.76	5.8832
11.77	5.88813
11.78	5.89931
11.79	5.87267
11.8	5.873
11.81	5.88287
11.82	5.90195
11.83	5.89208
11.84	5.87168
11.85	5.85096
11.86	5.87037
11.87	5.87563
11.88	5.87596
11.89	5.8901
11.9	5.88649
11.91	5.88221
11.92	5.88583
11.93	5.86741
11.94	5.88451
11.95	5.86642
11.96	5.85556
11.97	5.86313
11.98	5.86609
11.99	5.873
12	5.87234
12.01	5.85359
12.02	5.86412
12.03	5.86642
12.04	5.8707
12.05	5.86806
12.06	5.87859
12.07	5.88484
12.08	5.84471
12.09	5.82365
12.1	5.85326
12.11	5.84537
12.12	5.86346
12.13	5.8526
12.14	5.85951
12.15	5.85984
12.16	5.86905
12.17	5.87596
12.18	5.8582
12.19	5.84273
12.2	5.85721
12.21	5.81477
12.22	5.83813
12.23	5.81115
12.24	5.84208
12.25	5.83451
12.26	5.8299
12.27	5.85787
12.28	5.86971
12.29	5.86675
12.3	5.85754
12.31	5.8378
12.32	5.81214
12.33	5.83122
12.34	5.85293
12.35	5.86346
12.36	5.82694
12.37	5.82004
12.38	5.84273
12.39	5.84602
12.4	5.85491
12.41	5.84372
12.42	5.81773
12.43	5.81609
12.44	5.8401
12.45	5.84964
12.46	5.83648
12.47	5.8253
12.48	5.78714
12.49	5.82069
12.5	5.8151
12.51	5.8151
12.52	5.823
12.53	5.80589
12.54	5.83221
12.55	5.82859
12.56	5.82596
12.57	5.81412
12.58	5.82464
12.59	5.82267
12.6	5.79109
12.61	5.83188
12.62	5.82892
12.63	5.80326
12.64	5.79372
12.65	5.78089
12.66	5.79438
12.67	5.81247
12.68	5.80688
12.69	5.80852
12.7	5.82201
12.71	5.81115
12.72	5.81148
12.73	5.81083
12.74	5.81247
12.75	5.80425
12.76	5.798
12.77	5.79767
12.78	5.79142
12.79	5.79898
12.8	5.81313
12.81	5.81642
12.82	5.80161
12.83	5.80622
12.84	5.80688
12.85	5.79405
12.86	5.8128
12.87	5.81938
12.88	5.81543
12.89	5.78582
12.9	5.75951
12.91	5.79109
12.92	5.77497
12.93	5.76247
12.94	5.78846
12.95	5.77332
12.96	5.77596
12.97	5.79372
12.98	5.79504
12.99	5.80458
13	5.79833
13.01	5.76675
13.02	5.77661
13.03	5.78714
13.04	5.78451
13.05	5.78056
13.06	5.80425
13.07	5.79569
13.08	5.7924
13.09	5.74734
13.1	5.7651
13.11	5.77365
13.12	5.77826
13.13	5.78615
13.14	5.78023
13.15	5.79701
13.16	5.81971
13.17	5.79471
13.18	5.78451
13.19	5.77892
13.2	5.78385
13.21	5.78254
13.22	5.77168
13.23	5.76346
13.24	5.79339
13.25	5.79109
13.26	5.77892
13.27	5.78681
13.28	5.77629
13.29	5.75589
13.3	5.76773
13.31	5.79076
13.32	5.7526
13.33	5.76609
13.34	5.76905
13.35	5.78484
13.36	5.75556
13.37	5.76872
13.38	5.77563
13.39	5.7855
13.4	5.77102
13.41	5.78089
13.42	5.79997
13.43	5.77431
13.44	5.76477
13.45	5.76609
13.46	5.78944
13.47	5.7674
13.48	5.77168
13.49	5.77957
13.5	5.75063
13.51	5.75359
13.52	5.75786
13.53	5.74536
13.54	5.75063
13.55	5.77596
13.56	5.74832
13.57	5.76444
13.58	5.77629
13.59	5.798
13.6	5.77102
13.61	5.75688
13.62	5.75523
13.63	5.75227
13.64	5.74273
13.65	5.76017
13.66	5.77727
13.67	5.77234
13.68	5.75523
13.69	5.7605
13.7	5.75819
13.71	5.73681
13.72	5.74273
13.73	5.76905
13.74	5.76181
