"BIO-KINE ASCII FILE"
"_COMMENT"	"MOS-500 Spectrometer"
"_COMMENT"	"Kinetics measurement"
"_COMMENT"	"Y Unit : Volt,  X Unit : s"
"_COMMENT"	"Excitation wavelength : 380 nm"
"_COMMENT"	"Fentes bandwidth =  1 nm"
"_COMMENT"	"HV= 1000V"
"_COMMENT"	"Timebase  1 =  .01 s   5001 pts"
"_SFM"	"SFM-400 /S  Advanced mode"
"_SFM"	"Ratio : S1: 2.5, S2: 0, S3: 0, S4: 1"
"_SFM"	"Content : S1: , S2: , S3: , S4:"
"_SFM"	"Concentration : S1: , S2: , S3: , S4:"
"_SFM"	"Total volume : 209 µl  Flow : 3.5 mL/s"
"_SFM"	"Acquisition start :  10 ms before stop"
"_SFM"	"cuve=FC-15, s1=10 ml , s2=10 ml , s3=10 ml , s4=1.9 ml"
"_UNITX"	"s"
"_UNITY"	"Volt"
"_DELTAX"	0
"_DATA"
1e-300	8.29642
0.01	8.503
0.02	8.53622
0.03	8.58327
0.04	8.66156
0.05	8.75827
0.06	8.81024
0.07	8.83228
0.08	8.7961
0.09	8.83327
0.1	8.83623
0.11	8.85663
0.12	8.86156
0.13	8.74379
0.14	8.82143
0.15	8.83294
0.16	8.82702
0.17	8.85202
0.18	8.84347
0.19	8.83294
0.2	8.85136
0.21	8.79972
0.22	8.81222
0.23	8.81123
0.24	8.84117
0.25	8.80432
0.26	8.8609
0.27	8.81452
0.28	8.83952
0.29	8.83755
0.3	8.8132
0.31	8.78294
0.32	8.84084
0.33	8.80235
0.34	8.85367
0.35	8.82307
0.36	8.83557
0.37	8.83163
0.38	8.76419
0.39	8.72603
0.4	8.81682
0.41	8.78031
0.42	8.74051
0.43	8.75103
0.44	8.73985
0.45	8.77044
0.46	8.76123
0.47	8.77373
0.48	8.77702
0.49	8.7632
0.5	8.7813
0.51	8.78919
0.52	8.80564
0.53	8.7563
0.54	8.73952
0.55	8.73228
0.56	8.70958
0.57	8.74774
0.58	8.73195
0.59	8.71616
0.6	8.75005
0.61	8.76189
0.62	8.70399
0.63	8.69314
0.64	8.70761
0.65	8.70925
0.66	8.69577
0.67	8.66189
0.68	8.66682
0.69	8.69939
0.7	8.6905
0.71	8.65432
0.72	8.68754
0.73	8.7586
0.74	8.71518
0.75	8.64083
0.76	8.72833
0.77	8.66419
0.78	8.67833
0.79	8.62406
0.8	8.63754
0.81	8.68754
0.82	8.6359
0.83	8.64182
0.84	8.65794
0.85	8.63261
0.86	8.67077
0.87	8.59478
0.88	8.59511
0.89	8.61188
0.9	8.63952
0.91	8.63031
0.92	8.63985
0.93	8.61123
0.94	8.59116
0.95	8.51484
0.96	8.55201
0.97	8.61748
0.98	8.57109
0.99	8.57241
1	8.60925
1.01	8.5609
1.02	8.57734
1.03	8.55826
1.04	8.59346
1.05	8.52109
1.06	8.54017
1.07	8.55465
1.08	8.57669
1.09	8.54675
1.1	8.53392
1.11	8.51188
1.12	8.48293
1.13	8.51418
1.14	8.49478
1.15	8.56879
1.16	8.55925
1.17	8.47767
1.18	8.48524
1.19	8.49774
1.2	8.48392
1.21	8.50695
1.22	8.48359
1.23	8.44708
1.24	8.48951
1.25	8.46912
1.26	8.43326
1.27	8.3905
1.28	8.40201
1.29	8.43359
1.3	8.54313
1.31	8.54083
1.32	8.50136
1.33	8.44774
1.34	8.48787
1.35	8.44149
1.36	8.38951
1.37	8.37635
1.38	8.4632
1.39	8.43458
1.4	8.45135
1.41	8.43359
1.42	8.42668
1.43	8.37668
1.44	8.33819
1.45	8.40596
1.46	8.40102
1.47	8.34708
1.48	8.38655
1.49	8.30563
1.5	8.36616
1.51	8.34839
1.52	8.39609
1.53	8.39839
1.54	8.40497
1.55	8.39148
1.56	8.38392
1.57	8.38655
1.58	8.42208
1.59	8.36714
1.6	8.37339
1.61	8.32833
1.62	8.36583
1.63	8.40398
1.64	8.35694
1.65	8.39445
1.66	8.35925
1.67	8.25957
1.68	8.2951
1.69	8.33721
1.7	8.34477
1.71	8.35037
1.72	8.34247
1.73	8.31648
1.74	8.36944
1.75	8.30793
1.76	8.28984
1.77	8.31385
1.78	8.28556
1.79	8.28589
1.8	8.24115
1.81	8.25431
1.82	8.27898
1.83	8.32635
1.84	8.31747
1.85	8.29346
1.86	8.27471
1.87	8.26155
1.88	8.30398
1.89	8.27175
1.9	8.23951
1.91	8.27339
1.92	8.31286
1.93	8.25661
1.94	8.26846
1.95	8.24971
1.96	8.24674
1.97	8.2224
1.98	8.21352
1.99	8.1724
2	8.2326
2.01	8.20595
2.02	8.17931
2.03	8.21944
2.04	8.20497
2.05	8.22964
2.06	8.21911
2.07	8.23161
2.08	8.15365
2.09	8.16747
2.1	8.22306
2.11	8.17931
2.12	8.22701
2.13	8.21549
2.14	8.17832
2.15	8.22536
2.16	8.17306
2.17	8.20135
2.18	8.23095
2.19	8.22438
2.2	8.15595
2.21	8.16582
2.22	8.11089
2.23	8.14181
2.24	8.14082
2.25	8.10858
2.26	8.18753
2.27	8.17997
2.28	8.10924
2.29	8.14411
2.3	8.16155
2.31	8.10661
2.32	8.15003
2.33	8.13556
2.34	8.102
2.35	8.17733
2.36	8.15924
2.37	8.13983
2.38	8.08095
2.39	8.10628
2.4	8.11154
2.41	8.12733
2.42	8.04904
2.43	8.01746
2.44	8.0997
2.45	8.0622
2.46	8.09181
2.47	8.08457
2.48	8.09477
2.49	8.07339
2.5	8.07865
2.51	8.09049
2.52	8.04707
2.53	8.07437
2.54	8.04148
2.55	8.07075
2.56	8.05628
2.57	8.04148
2.58	8.06056
2.59	7.9849
2.6	8.02009
2.61	8.02865
2.62	8.00134
2.63	8.05858
2.64	8.052
2.65	7.95858
2.66	7.98424
2.67	8.00661
2.68	7.96746
2.69	7.94772
2.7	8.03358
2.71	8.01384
2.72	8.0122
2.73	7.94805
2.74	7.95266
2.75	7.96812
2.76	7.97503
2.77	7.92404
2.78	8.00529
2.79	7.9974
2.8	7.99904
2.81	8.01483
2.82	7.98621
2.83	8.01615
2.84	7.92864
2.85	7.9599
2.86	7.91746
2.87	7.95003
2.88	7.94871
2.89	7.97733
2.9	7.94443
2.91	7.927
2.92	7.9474
2.93	7.89575
2.94	7.94115
2.95	7.90463
2.96	7.93325
2.97	7.99312
2.98	7.91253
2.99	7.92963
3	7.95266
3.01	7.91483
3.02	7.90891
3.03	7.90035
3.04	7.90134
3.05	7.89904
3.06	7.90266
3.07	7.9599
3.08	7.92766
3.09	7.86187
3.1	7.92634
3.11	7.9395
3.12	7.87108
3.13	7.88325
3.14	7.93095
3.15	7.92272
3.16	7.90035
3.17	7.86549
3.18	7.85562
3.19	7.83127
3.2	7.86549
3.21	7.85792
3.22	7.86285
3.23	7.87503
3.24	7.84377
3.25	7.85759
3.26	7.87503
3.27	7.84805
3.28	7.83062
3.29	7.76515
3.3	7.79739
3.31	7.82338
3.32	7.83917
3.33	7.82042
3.34	7.81844
3.35	7.82437
3.36	7.79312
3.37	7.83226
3.38	7.84608
3.39	7.80726
3.4	7.80002
3.41	7.82897
3.42	7.82864
3.43	7.7964
3.44	7.76943
3.45	7.78456
3.46	7.75463
3.47	7.7543
3.48	7.75726
3.49	7.7293
3.5	7.76483
3.51	7.79706
3.52	7.7543
3.53	7.82634
3.54	7.81219
3.55	7.81022
3.56	7.75792
3.57	7.76746
3.58	7.7464
3.59	7.75397
3.6	7.7418
3.61	7.78917
3.62	7.76877
3.63	7.78094
3.64	7.72469
3.65	7.7395
3.66	7.74904
3.67	7.71548
3.68	7.75167
3.69	7.73654
3.7	7.74114
3.71	7.71581
3.72	7.75331
3.73	7.75232
3.74	7.67009
3.75	7.72535
3.76	7.75923
3.77	7.7714
3.78	7.73357
3.79	7.71581
3.8	7.70561
3.81	7.74443
3.82	7.74048
3.83	7.73489
3.84	7.65265
3.85	7.68193
3.86	7.69838
3.87	7.71219
3.88	7.65726
3.89	7.67568
3.9	7.68324
3.91	7.66548
3.92	7.67173
3.93	7.71055
3.94	7.6816
3.95	7.69081
3.96	7.68785
3.97	7.68851
3.98	7.72305
3.99	7.70594
4	7.71384
4.01	7.68522
4.02	7.71713
4.03	7.65397
4.04	7.65199
4.05	7.61022
4.06	7.64903
4.07	7.6362
4.08	7.72173
4.09	7.68982
4.1	7.6316
4.11	7.63061
4.12	7.65134
4.13	7.65068
4.14	7.62206
4.15	7.60298
4.16	7.63818
4.17	7.6839
4.18	7.60429
4.19	7.63094
4.2	7.60693
4.21	7.62732
4.22	7.56285
4.23	7.60495
4.24	7.66186
4.25	7.60495
4.26	7.62305
4.27	7.62239
4.28	7.60594
4.29	7.5941
4.3	7.64739
4.31	7.60791
4.32	7.55331
4.33	7.60298
4.34	7.56778
4.35	7.56318
4.36	7.61647
4.37	7.63587
4.38	7.56186
4.39	7.59837
4.4	7.57337
4.41	7.57206
4.42	7.56712
4.43	7.55068
4.44	7.55758
4.45	7.55693
4.46	7.56383
4.47	7.53982
4.48	7.54508
4.49	7.51482
4.5	7.53686
4.51	7.56153
4.52	7.57107
4.53	7.55693
4.54	7.58982
4.55	7.54739
4.56	7.5237
4.57	7.55396
4.58	7.53061
4.59	7.50824
4.6	7.52107
4.61	7.51975
4.62	7.58982
4.63	7.54574
4.64	7.56844
4.65	7.5816
4.66	7.54936
4.67	7.4737
4.68	7.4714
4.69	7.52239
4.7	7.48225
4.71	7.47929
4.72	7.50331
4.73	7.5385
4.74	7.49508
4.75	7.46712
4.76	7.45923
4.77	7.44574
4.78	7.48784
4.79	7.53521
4.8	7.47469
4.81	7.49278
4.82	7.49738
4.83	7.55364
4.84	7.50824
4.85	7.51021
4.86	7.49377
4.87	7.49409
4.88	7.45495
4.89	7.42008
4.9	7.51021
4.91	7.48817
4.92	7.43883
4.93	7.4612
4.94	7.44541
4.95	7.41975
4.96	7.40857
4.97	7.46021
4.98	7.46909
4.99	7.4862
5	7.42337
5.01	7.47567
5.02	7.43291
5.03	7.37666
5.04	7.42534
5.05	7.4714
5.06	7.4283
5.07	7.39837
5.08	7.40495
5.09	7.38718
5.1	7.38883
5.11	7.45429
5.12	7.39311
5.13	7.43192
5.14	7.43126
5.15	7.44311
5.16	7.42863
5.17	7.39113
5.18	7.3987
5.19	7.39705
5.2	7.39541
5.21	7.41646
5.22	7.40067
5.23	7.34639
5.24	7.40955
5.25	7.43159
5.26	7.40528
5.27	7.41942
5.28	7.38521
5.29	7.30922
5.3	7.29672
5.31	7.42797
5.32	7.40791
5.33	7.41745
5.34	7.39541
5.35	7.38751
5.36	7.41876
5.37	7.38028
5.38	7.37929
5.39	7.37567
5.4	7.39442
5.41	7.37962
5.42	7.3635
5.43	7.35297
5.44	7.34804
5.45	7.4533
5.46	7.44344
5.47	7.31284
5.48	7.40067
5.49	7.37666
5.5	7.38817
5.51	7.38159
5.52	7.34245
5.53	7.36646
5.54	7.36449
5.55	7.31449
5.56	7.34343
5.57	7.37567
5.58	7.32797
5.59	7.34672
5.6	7.32995
5.61	7.27731
5.62	7.26646
5.63	7.35988
5.64	7.3158
5.65	7.30198
5.66	7.31152
5.67	7.31481
5.68	7.32205
5.69	7.26251
5.7	7.32271
5.71	7.39804
5.72	7.31613
5.73	7.33718
5.74	7.33488
5.75	7.36087
5.76	7.27797
5.77	7.26481
5.78	7.28948
5.79	7.30889
5.8	7.33258
5.81	7.25725
5.82	7.27567
5.83	7.30495
5.84	7.33356
5.85	7.32501
5.86	7.28323
5.87	7.23586
5.88	7.27238
5.89	7.24442
5.9	7.26185
5.91	7.24902
5.92	7.22863
5.93	7.22929
5.94	7.25758
5.95	7.28488
5.96	7.29212
5.97	7.27205
5.98	7.26909
5.99	7.25264
6	7.26054
6.01	7.24442
6.02	7.24508
6.03	7.24508
6.04	7.2704
6.05	7.23915
6.06	7.25988
6.07	7.23126
6.08	7.2658
6.09	7.26547
6.1	7.23718
6.11	7.251
6.12	7.24902
6.13	7.23455
6.14	7.26119
6.15	7.26679
6.16	7.24738
6.17	7.24672
6.18	7.29179
6.19	7.25725
6.2	7.24902
6.21	7.18389
6.22	7.27633
6.23	7.28093
6.24	7.25462
6.25	7.25462
6.26	7.21777
6.27	7.18257
6.28	7.22369
6.29	7.26843
6.3	7.23027
6.31	7.20494
6.32	7.17501
6.33	7.22304
6.34	7.23521
6.35	7.19507
6.36	7.24606
6.37	7.21218
6.38	7.19869
6.39	7.18849
6.4	7.23488
6.41	7.15922
6.42	7.17567
6.43	7.20165
6.44	7.18718
6.45	7.18652
6.46	7.19047
6.47	7.13849
6.48	7.13816
6.49	7.21744
6.5	7.15034
6.51	7.19277
6.52	7.17501
6.53	7.17896
6.54	7.15659
6.55	7.12501
6.56	7.16119
6.57	7.1579
6.58	7.17599
6.59	7.16514
6.6	7.16152
6.61	7.16349
6.62	7.15724
6.63	7.17567
6.64	7.1931
6.65	7.15692
6.66	7.17172
6.67	7.10757
6.68	7.1283
6.69	7.1079
6.7	7.14277
6.71	7.11711
6.72	7.1658
6.73	7.13356
6.74	7.13948
6.75	7.13652
6.76	7.10757
6.77	7.09244
6.78	7.15198
6.79	7.13652
6.8	7.18751
6.81	7.05954
6.82	7.0977
6.83	7.11086
6.84	7.11612
6.85	7.11415
6.86	7.11645
6.87	7.12895
6.88	7.09244
6.89	7.12928
6.9	7.1477
6.91	7.12435
6.92	7.09869
6.93	7.09869
6.94	7.15757
6.95	7.1033
6.96	7.09836
6.97	7.1158
6.98	7.08783
6.99	7.05329
7	7.08882
7.01	7.11415
7.02	7.07698
7.03	7.09014
7.04	7.09968
7.05	7.05428
7.06	7.02204
7.07	7.0681
7.08	7.06053
7.09	7.09047
7.1	7.08356
7.11	7.08586
7.12	7.08158
7.13	7.07139
7.14	7.05593
7.15	7.06547
7.16	7.02994
7.17	7.03389
7.18	7.04474
7.19	7.09178
7.2	7.01842
7.21	7.06053
7.22	7.06448
7.23	7.01415
7.24	7.04737
7.25	7.00954
7.26	7.04869
7.27	7.03586
7.28	7.04244
7.29	6.99737
7.3	6.99704
7.31	7.06152
7.32	7.02698
7.33	7.04343
7.34	7.01908
7.35	7.04441
7.36	7.07698
7.37	7.06086
7.38	7.08981
7.39	7.01316
7.4	7.01777
7.41	7.00428
7.42	7.05757
7.43	7.03981
7.44	7.01349
7.45	7.0454
7.46	6.99112
7.47	6.99507
7.48	7.00724
7.49	7.02369
7.5	7.03158
7.51	7.02599
7.52	6.98388
7.53	6.99902
7.54	7.04935
7.55	7.00921
7.56	6.99573
7.57	6.99277
7.58	7.01283
7.59	6.99704
7.6	6.98849
7.61	7.05329
7.62	7.01086
7.63	7.00362
7.64	7.0352
7.65	6.98487
7.66	6.97599
7.67	7.01514
7.68	6.99935
7.69	7.02171
7.7	7.03158
7.71	7.00428
7.72	6.99836
7.73	7.00395
7.74	6.97961
7.75	6.95033
7.76	6.96579
7.77	6.95954
7.78	6.97599
7.79	6.97928
7.8	6.97698
7.81	6.99836
7.82	6.97171
7.83	6.98586
7.84	7.02073
7.85	6.98388
7.86	7.00263
7.87	6.97369
7.88	6.94178
7.89	6.97303
7.9	7.03093
7.91	6.99046
7.92	6.97402
7.93	6.95494
7.94	6.975
7.95	6.97106
7.96	6.99671
7.97	6.97599
7.98	6.92862
7.99	6.93849
8	6.975
8.01	6.93487
8.02	6.97402
8.03	7.01777
8.04	6.94902
8.05	6.97566
8.06	6.97698
8.07	6.94638
8.08	6.95198
8.09	7.00658
8.1	7.0056
8.11	6.95724
8.12	6.91744
8.13	6.96875
8.14	6.92895
8.15	6.92401
8.16	6.91283
8.17	6.93915
8.18	6.97073
8.19	6.94836
8.2	6.91645
8.21	6.92994
8.22	6.94375
8.23	6.94408
8.24	6.90362
8.25	6.98323
8.26	6.92336
8.27	6.96546
8.28	6.91053
8.29	6.94507
8.3	6.92599
8.31	6.93684
8.32	6.93191
8.33	6.93882
8.34	6.93948
8.35	6.89408
8.36	6.95099
8.37	6.91645
8.38	6.92796
8.39	6.93059
8.4	6.93948
8.41	6.89441
8.42	6.9
8.43	6.91776
8.44	6.92862
8.45	6.90658
8.46	6.90296
8.47	6.9204
8.48	6.86349
8.49	6.88355
8.5	6.92434
8.51	6.93553
8.52	6.93224
8.53	6.93849
8.54	6.96612
8.55	6.90197
8.56	6.92665
8.57	6.97599
8.58	6.925
8.59	6.92138
8.6	6.93158
8.61	6.88454
8.62	6.86414
8.63	6.84474
8.64	6.92401
8.65	6.96316
8.66	6.93059
8.67	6.89803
8.68	6.90559
8.69	6.90132
8.7	6.89112
8.71	6.87862
8.72	6.87434
8.73	6.85822
8.74	6.84506
8.75	6.86908
8.76	6.88125
8.77	6.90855
8.78	6.86513
8.79	6.84375
8.8	6.82697
8.81	6.86579
8.82	6.87105
8.83	6.89243
8.84	6.87007
8.85	6.88355
8.86	6.8671
8.87	6.85197
8.88	6.88355
8.89	6.86612
8.9	6.85033
8.91	6.87039
8.92	6.92665
8.93	6.89211
8.94	6.88158
8.95	6.8602
8.96	6.86743
8.97	6.87993
8.98	6.94112
8.99	6.87928
9	6.875
9.01	6.8546
9.02	6.88783
9.03	6.84737
9.04	6.89112
9.05	6.88487
9.06	6.86217
9.07	6.84901
9.08	6.85625
9.09	6.85625
9.1	6.8148
9.11	6.79572
9.12	6.86941
9.13	6.82138
9.14	6.84671
9.15	6.87664
9.16	6.82006
9.17	6.8273
9.18	6.82664
9.19	6.80855
9.2	6.86349
9.21	6.81612
9.22	6.84572
9.23	6.83059
9.24	6.84638
9.25	6.82434
9.26	6.85066
9.27	6.87401
9.28	6.82829
9.29	6.84671
9.3	6.87368
9.31	6.825
9.32	6.81974
9.33	6.82467
9.34	6.78125
9.35	6.78158
9.36	6.77631
9.37	6.76973
9.38	6.78026
9.39	6.81809
9.4	6.83158
9.41	6.85428
9.42	6.81677
9.43	6.78059
9.44	6.80921
9.45	6.79375
9.46	6.8171
9.47	6.85066
9.48	6.79112
9.49	6.81217
9.5	6.77927
9.51	6.83454
9.52	6.76776
9.53	6.79013
9.54	6.79441
9.55	6.78388
9.56	6.84638
9.57	6.79901
9.58	6.8546
9.59	6.7977
9.6	6.78914
9.61	6.80296
9.62	6.80723
9.63	6.78552
9.64	6.77171
9.65	6.8148
9.66	6.79934
9.67	6.80296
9.68	6.80855
9.69	6.79441
9.7	6.77006
9.71	6.76052
9.72	6.79868
9.73	6.81118
9.74	6.80625
9.75	6.7796
9.76	6.78256
9.77	6.78421
9.78	6.76052
9.79	6.77533
9.8	6.78125
9.81	6.77533
9.82	6.74276
9.83	6.73026
9.84	6.77862
9.85	6.73322
9.86	6.75658
9.87	6.77237
9.88	6.78717
9.89	6.79605
9.9	6.78191
9.91	6.79408
9.92	6.8023
9.93	6.75526
9.94	6.73223
9.95	6.74111
9.96	6.74835
9.97	6.7773
9.98	6.70986
9.99	6.72171
10	6.73519
10.01	6.77237
10.02	6.71875
10.03	6.70361
10.04	6.74375
10.05	6.77533
10.06	6.77993
10.07	6.78848
10.08	6.75954
10.09	6.72927
10.1	6.78125
10.11	6.7375
10.12	6.77237
10.13	6.74309
10.14	6.74046
10.15	6.81217
10.16	6.82401
10.17	6.73552
10.18	6.76447
10.19	6.72598
10.2	6.70789
10.21	6.74736
10.22	6.70296
10.23	6.75954
10.24	6.73552
10.25	6.76217
10.26	6.74901
10.27	6.77138
10.28	6.77434
10.29	6.72368
10.3	6.73717
10.31	6.76677
10.32	6.75394
10.33	6.77138
10.34	6.74835
10.35	6.72829
10.36	6.71973
10.37	6.70888
10.38	6.75394
10.39	6.71019
10.4	6.73947
10.41	6.73651
10.42	6.71118
10.43	6.69802
10.44	6.69111
10.45	6.69835
10.46	6.70921
10.47	6.72269
10.48	6.7319
10.49	6.74539
10.5	6.65295
10.51	6.69802
10.52	6.73783
10.53	6.73486
10.54	6.73783
10.55	6.7023
10.56	6.71019
10.57	6.74013
10.58	6.72631
10.59	6.7421
10.6	6.69934
10.61	6.69934
10.62	6.70657
10.63	6.7069
10.64	6.73717
10.65	6.69276
10.66	6.73651
10.67	6.72861
10.68	6.7375
10.69	6.68914
10.7	6.71776
10.71	6.7046
10.72	6.68092
10.73	6.64703
10.74	6.68388
10.75	6.67467
10.76	6.67598
10.77	6.75723
10.78	6.74671
10.79	6.69671
10.8	6.68815
10.81	6.66282
10.82	6.71513
10.83	6.73519
10.84	6.69605
10.85	6.66348
10.86	6.67828
10.87	6.69934
10.88	6.70065
10.89	6.72335
10.9	6.65624
10.91	6.72138
10.92	6.69769
10.93	6.71907
10.94	6.6694
10.95	6.68124
10.96	6.68684
10.97	6.66611
10.98	6.63815
10.99	6.6467
11	6.70657
11.01	6.68881
11.02	6.73158
11.03	6.69078
11.04	6.67467
11.05	6.64506
11.06	6.66644
11.07	6.68618
11.08	6.69013
11.09	6.68355
11.1	6.70427
11.11	6.6671
11.12	6.68223
11.13	6.60591
11.14	6.62927
11.15	6.65592
11.16	6.64243
11.17	6.65131
11.18	6.64703
11.19	6.64638
11.2	6.66842
11.21	6.67927
11.22	6.72039
11.23	6.66348
11.24	6.6921
11.25	6.73815
11.26	6.6898
11.27	6.66973
11.28	6.72532
11.29	6.67532
11.3	6.61118
11.31	6.68355
11.32	6.70888
11.33	6.7171
11.34	6.68157
11.35	6.71019
11.36	6.65953
11.37	6.67467
11.38	6.68355
11.39	6.67532
11.4	6.68585
11.41	6.64473
11.42	6.72006
11.43	6.65756
11.44	6.65131
11.45	6.69506
11.46	6.62236
11.47	6.63322
11.48	6.60032
11.49	6.61315
11.5	6.68059
11.51	6.7171
11.52	6.63322
11.53	6.60526
11.54	6.6546
11.55	6.60855
11.56	6.61677
11.57	6.59868
11.58	6.65427
11.59	6.65263
11.6	6.64999
11.61	6.67138
11.62	6.70723
11.63	6.65263
11.64	6.64078
11.65	6.65789
11.66	6.62532
11.67	6.66513
11.68	6.65065
11.69	6.66513
11.7	6.67763
11.71	6.6694
11.72	6.6273
11.73	6.66644
11.74	6.62664
11.75	6.63519
11.76	6.6421
11.77	6.6342
11.78	6.59637
11.79	6.60624
11.8	6.61348
11.81	6.63585
11.82	6.66513
11.83	6.62664
11.84	6.62993
11.85	6.64605
11.86	6.60295
11.87	6.59769
11.88	6.57664
11.89	6.55196
11.9	6.64407
11.91	6.65624
11.92	6.63618
11.93	6.63289
11.94	6.67796
11.95	6.61085
11.96	6.5717
11.97	6.60098
11.98	6.60558
11.99	6.62532
12	6.59637
12.01	6.60262
12.02	6.63651
12.03	6.58815
12.04	6.60295
12.05	6.56479
12.06	6.59933
12.07	6.63585
12.08	6.67072
12.09	6.62631
12.1	6.66052
12.11	6.64868
12.12	6.6273
12.13	6.59999
12.14	6.61019
12.15	6.63881
12.16	6.59637
12.17	6.59933
12.18	6.65657
12.19	6.65822
12.2	6.61545
12.21	6.59243
12.22	6.56907
12.23	6.6398
12.24	6.62434
12.25	6.57894
12.26	6.58618
12.27	6.61512
12.28	6.57302
12.29	6.61611
12.3	6.60262
12.31	6.60493
12.32	6.64901
12.33	6.68782
12.34	6.61381
12.35	6.5717
12.36	6.5944
12.37	6.59999
12.38	6.55624
12.39	6.6023
12.4	6.65098
12.41	6.62927
12.42	6.56085
12.43	6.56611
12.44	6.57861
12.45	6.59999
12.46	6.58947
12.47	6.61381
12.48	6.61776
12.49	6.62105
12.5	6.65032
12.51	6.58124
12.52	6.57499
12.53	6.57039
12.54	6.54539
12.55	6.5842
12.56	6.60328
12.57	6.66414
12.58	6.61381
12.59	6.6092
12.6	6.59276
12.61	6.59012
12.62	6.63749
12.63	6.62795
12.64	6.62993
12.65	6.56545
12.66	6.54012
12.67	6.62499
12.68	6.57631
12.69	6.56282
12.7	6.57828
12.71	6.58157
12.72	6.55493
12.73	6.57598
12.74	6.54999
12.75	6.57499
12.76	6.59407
12.77	6.56183
12.78	6.56479
12.79	6.54473
12.8	6.59539
12.81	6.57894
12.82	6.55295
12.83	6.6171
12.84	6.57828
12.85	6.58683
12.86	6.51973
12.87	6.54769
12.88	6.52335
12.89	6.56315
12.9	6.59374
12.91	6.53223
12.92	6.55953
12.93	6.56907
12.94	6.49045
12.95	6.51677
12.96	6.58749
12.97	6.57762
12.98	6.61644
12.99	6.5717
13	6.53815
13.01	6.48617
13.02	6.58058
13.03	6.62269
13.04	6.57335
13.05	6.50986
13.06	6.5319
13.07	6.56381
13.08	6.56118
13.09	6.58124
13.1	6.5615
13.11	6.57697
13.12	6.56447
13.13	6.5546
13.14	6.55229
13.15	6.56874
13.16	6.54012
13.17	6.52499
13.18	6.56052
13.19	6.59605
13.2	6.57697
13.21	6.49834
13.22	6.48486
13.23	6.52927
13.24	6.56775
13.25	6.54933
13.26	6.58026
13.27	6.53716
13.28	6.54966
13.29	6.5115
13.3	6.55032
13.31	6.55887
13.32	6.58716
13.33	6.54999
13.34	6.54999
13.35	6.56907
13.36	6.54144
13.37	6.56348
13.38	6.54999
13.39	6.54571
13.4	6.55229
13.41	6.53124
13.42	6.52762
13.43	6.56545
13.44	6.58157
13.45	6.5319
13.46	6.59144
13.47	6.55131
13.48	6.56512
13.49	6.51874
13.5	6.55887
13.51	6.59901
13.52	6.54868
13.53	6.549
13.54	6.58256
13.55	6.54736
13.56	6.59276
13.57	6.55229
13.58	6.5444
13.59	6.52696
13.6	6.51545
13.61	6.62203
13.62	6.56052
13.63	6.51742
13.64	6.52104
13.65	6.52927
13.66	6.54144
13.67	6.5421
13.68	6.57729
13.69	6.5296
13.7	6.52598
13.71	6.56545
13.72	6.54308
13.73	6.56743
13.74	6.56348
