"BIO-KINE ASCII FILE"
"_COMMENT"	"MOS-500 Spectrometer"
"_COMMENT"	"Kinetics measurement"
"_COMMENT"	"Y Unit : Volt,  X Unit : s"
"_COMMENT"	"Excitation wavelength : 380 nm"
"_COMMENT"	"Fentes bandwidth =  1 nm"
"_COMMENT"	"HV= 1000V"
"_COMMENT"	"Timebase  1 =  .01 s   5001 pts"
"_SFM"	"SFM-400 /S  Advanced mode"
"_SFM"	"Ratio : S1: 2.5, S2: 0, S3: 0, S4: 1"
"_SFM"	"Content : S1: , S2: , S3: , S4:"
"_SFM"	"Concentration : S1: , S2: , S3: , S4:"
"_SFM"	"Total volume : 209 µl  Flow : 3.5 mL/s"
"_SFM"	"Acquisition start :  10 ms before stop"
"_SFM"	"cuve=FC-15, s1=10 ml , s2=10 ml , s3=10 ml , s4=1.9 ml"
"_UNITX"	"s"
"_UNITY"	"Volt"
"_DELTAX"	0
"_DATA"
1e-300	2.92488
0.01	2.91238
0.02	2.95646
0.03	3.03179
0.04	3.07127
0.05	3.11929
0.06	3.1466
0.07	3.13015
0.08	3.17028
0.09	3.17785
0.1	3.18541
0.11	3.1841
0.12	3.19463
0.13	3.21963
0.14	3.18344
0.15	3.23575
0.16	3.19199
0.17	3.1841
0.18	3.18772
0.19	3.16765
0.2	3.25515
0.21	3.21996
0.22	3.18476
0.23	3.21634
0.24	3.23377
0.25	3.21436
0.26	3.22226
0.27	3.21206
0.28	3.19298
0.29	3.22489
0.3	3.2216
0.31	3.2239
0.32	3.22818
0.33	3.24364
0.34	3.25384
0.35	3.21436
0.36	3.21667
0.37	3.22917
0.38	3.25252
0.39	3.26568
0.4	3.22061
0.41	3.25614
0.42	3.22785
0.43	3.20976
0.44	3.22555
0.45	3.21371
0.46	3.20877
0.47	3.22423
0.48	3.22917
0.49	3.21502
0.5	3.22851
0.51	3.26305
0.52	3.20614
0.53	3.23213
0.54	3.21239
0.55	3.26371
0.56	3.25186
0.57	3.23476
0.58	3.22884
0.59	3.22818
0.6	3.23213
0.61	3.24825
0.62	3.22719
0.63	3.24298
0.64	3.24134
0.65	3.21831
0.66	3.21568
0.67	3.24167
0.68	3.22851
0.69	3.19068
0.7	3.2012
0.71	3.21765
0.72	3.2216
0.73	3.23015
0.74	3.24496
0.75	3.23081
0.76	3.2193
0.77	3.20318
0.78	3.2239
0.79	3.23509
0.8	3.22357
0.81	3.2318
0.82	3.21765
0.83	3.16337
0.84	3.19923
0.85	3.21831
0.86	3.21634
0.87	3.22423
0.88	3.24857
0.89	3.23739
0.9	3.2318
0.91	3.21667
0.92	3.23805
0.93	3.22686
0.94	3.19627
0.95	3.21206
0.96	3.1989
0.97	3.24496
0.98	3.22193
0.99	3.20351
1	3.19759
1.01	3.2012
1.02	3.19166
1.03	3.20844
1.04	3.21173
1.05	3.1887
1.06	3.21996
1.07	3.20285
1.08	3.21436
1.09	3.20285
1.1	3.16568
1.11	3.18574
1.12	3.22061
1.13	3.19956
1.14	3.19792
1.15	3.19265
1.16	3.19923
1.17	3.18903
1.18	3.1841
1.19	3.20976
1.2	3.19594
1.21	3.20153
1.22	3.21864
1.23	3.20515
1.24	3.16305
1.25	3.18541
1.26	3.21239
1.27	3.20745
1.28	3.18344
1.29	3.21107
1.3	3.17949
1.31	3.18476
1.32	3.20088
1.33	3.18969
1.34	3.21864
1.35	3.24397
1.36	3.18805
1.37	3.2068
1.38	3.20778
1.39	3.17324
1.4	3.19693
1.41	3.21107
1.42	3.21765
1.43	3.19166
1.44	3.19166
1.45	3.21009
1.46	3.17226
1.47	3.17291
1.48	3.19627
1.49	3.22259
1.5	3.2364
1.51	3.21305
1.52	3.19857
1.53	3.20153
1.54	3.21667
1.55	3.17423
1.56	3.17291
1.57	3.17061
1.58	3.20318
1.59	3.22456
1.6	3.16962
1.61	3.17489
1.62	3.1887
1.63	3.16897
1.64	3.16535
1.65	3.16864
1.66	3.1637
1.67	3.18805
1.68	3.18838
1.69	3.19331
1.7	3.16732
1.71	3.18114
1.72	3.15943
1.73	3.16305
1.74	3.17752
1.75	3.18081
1.76	3.20614
1.77	3.1818
1.78	3.21272
1.79	3.18838
1.8	3.21634
1.81	3.22884
1.82	3.1966
1.83	3.1989
1.84	3.19166
1.85	3.21272
1.86	3.19364
1.87	3.17752
1.88	3.1818
1.89	3.19627
1.9	3.19824
1.91	3.17555
1.92	3.18772
1.93	3.18509
1.94	3.18574
1.95	3.19265
1.96	3.19824
1.97	3.18213
1.98	3.20022
1.99	3.1887
2	3.17555
2.01	3.20055
2.02	3.19561
2.03	3.20515
2.04	3.18311
2.05	3.21107
2.06	3.20877
2.07	3.16666
2.08	3.18739
2.09	3.17752
2.1	3.18213
2.11	3.16634
2.12	3.19824
2.13	3.19594
2.14	3.16995
2.15	3.20318
2.16	3.16206
2.17	3.18574
2.18	3.18048
2.19	3.17028
2.2	3.19068
2.21	3.16239
2.22	3.17259
2.23	3.17226
2.24	3.20877
2.25	3.17785
2.26	3.18147
2.27	3.18574
2.28	3.19463
2.29	3.19166
2.3	3.18344
2.31	3.17949
2.32	3.1739
2.33	3.17291
2.34	3.17522
2.35	3.18969
2.36	3.15844
2.37	3.15055
2.38	3.15712
2.39	3.15515
2.4	3.19101
2.41	3.18541
2.42	3.19528
2.43	3.19134
2.44	3.1387
2.45	3.17818
2.46	3.16041
2.47	3.13607
2.48	3.18147
2.49	3.18509
2.5	3.17686
2.51	3.16206
2.52	3.15252
2.53	3.16962
2.54	3.18081
2.55	3.18772
2.56	3.16206
2.57	3.16831
2.58	3.19265
2.59	3.20055
2.6	3.17587
2.61	3.16568
2.62	3.20548
2.63	3.21831
2.64	3.21009
2.65	3.20055
2.66	3.15647
2.67	3.16008
2.68	3.16272
2.69	3.15614
2.7	3.16074
2.71	3.14462
2.72	3.17522
2.73	3.16601
2.74	3.18278
2.75	3.16206
2.76	3.15515
2.77	3.16535
2.78	3.16699
2.79	3.14133
2.8	3.14002
2.81	3.1466
2.82	3.14857
2.83	3.1568
2.84	3.16337
2.85	3.15252
2.86	3.16305
2.87	3.14429
2.88	3.12028
2.89	3.15351
2.9	3.16436
2.91	3.14824
2.92	3.14726
2.93	3.13541
2.94	3.16041
2.95	3.18772
2.96	3.17719
2.97	3.20417
2.98	3.15515
2.99	3.19792
3	3.1637
3.01	3.12127
3.02	3.16699
3.03	3.13969
3.04	3.14364
3.05	3.17818
3.06	3.16107
3.07	3.16403
3.08	3.15055
3.09	3.15778
3.1	3.15515
3.11	3.13476
3.12	3.13508
3.13	3.14627
3.14	3.17851
3.15	3.1568
3.16	3.14791
3.17	3.15482
3.18	3.16995
3.19	3.15712
3.2	3.17193
3.21	3.12916
3.22	3.14726
3.23	3.19134
3.24	3.19824
3.25	3.15712
3.26	3.13706
3.27	3.14791
3.28	3.14495
3.29	3.10745
3.3	3.15976
3.31	3.1637
3.32	3.14726
3.33	3.11962
3.34	3.14133
3.35	3.15285
3.36	3.15252
3.37	3.1387
3.38	3.16008
3.39	3.15318
3.4	3.15252
3.41	3.17357
3.42	3.15383
3.43	3.14331
3.44	3.14857
3.45	3.11929
3.46	3.1591
3.47	3.15252
3.48	3.15219
3.49	3.14364
3.5	3.16041
3.51	3.15219
3.52	3.13048
3.53	3.14693
3.54	3.1591
3.55	3.1591
3.56	3.1262
3.57	3.15976
3.58	3.14397
3.59	3.12489
3.6	3.13607
3.61	3.15976
3.62	3.12916
3.63	3.13179
3.64	3.14824
3.65	3.1512
3.66	3.13212
3.67	3.14594
3.68	3.13739
3.69	3.11074
3.7	3.14429
3.71	3.15449
3.72	3.1568
3.73	3.18278
3.74	3.12587
3.75	3.14002
3.76	3.16535
3.77	3.14002
3.78	3.14824
3.79	3.13969
3.8	3.1262
3.81	3.12061
3.82	3.1364
3.83	3.14495
3.84	3.15943
3.85	3.14791
3.86	3.13278
3.87	3.1568
3.88	3.11633
3.89	3.11041
3.9	3.10877
3.91	3.13706
3.92	3.12916
3.93	3.16502
3.94	3.14199
3.95	3.17522
3.96	3.1512
3.97	3.16206
3.98	3.13903
3.99	3.15943
4	3.12982
4.01	3.12719
4.02	3.15943
4.03	3.13804
4.04	3.14495
4.05	3.13278
4.06	3.12291
4.07	3.15877
4.08	3.13114
4.09	3.14035
4.1	3.13311
4.11	3.13212
4.12	3.17949
4.13	3.13903
4.14	3.14693
4.15	3.13476
4.16	3.13706
4.17	3.1285
4.18	3.11798
4.19	3.15877
4.2	3.15449
4.21	3.12127
4.22	3.10515
4.23	3.10548
4.24	3.11403
4.25	3.13673
4.26	3.1387
4.27	3.1466
4.28	3.13048
4.29	3.08804
4.3	3.09989
4.31	3.12061
4.32	3.11403
4.33	3.11765
4.34	3.11173
4.35	3.13048
4.36	3.13147
4.37	3.14035
4.38	3.14495
4.39	3.13081
4.4	3.11798
4.41	3.11041
4.42	3.11304
4.43	3.12785
4.44	3.12061
4.45	3.10943
4.46	3.14199
4.47	3.1568
4.48	3.14002
4.49	3.14462
4.5	3.14462
4.51	3.14758
4.52	3.10943
4.53	3.10614
4.54	3.1285
4.55	3.12653
4.56	3.17587
4.57	3.16502
4.58	3.09331
4.59	3.11239
4.6	3.10778
4.61	3.12258
4.62	3.13508
4.63	3.13476
4.64	3.15318
4.65	3.16535
4.66	3.12324
4.67	3.10679
4.68	3.09989
4.69	3.09989
4.7	3.09002
4.71	3.11995
4.72	3.1012
4.73	3.10515
4.74	3.1364
4.75	3.10877
4.76	3.10021
4.77	3.12489
4.78	3.12719
4.79	3.10745
4.8	3.05811
4.81	3.11008
4.82	3.12127
4.83	3.12423
4.84	3.13903
4.85	3.10811
4.86	3.14495
4.87	3.11995
4.88	3.15022
4.89	3.14166
4.9	3.12949
4.91	3.14331
4.92	3.11962
4.93	3.13706
4.94	3.10646
4.95	3.11798
4.96	3.12949
4.97	3.14495
4.98	3.09923
4.99	3.10186
5	3.12653
5.01	3.11666
5.02	3.10614
5.03	3.07752
5.04	3.11008
5.05	3.13114
5.06	3.15548
5.07	3.13114
5.08	3.13903
5.09	3.12949
5.1	3.09758
5.11	3.08475
5.12	3.09429
5.13	3.10318
5.14	3.1239
5.15	3.08739
5.16	3.1137
5.17	3.12291
5.18	3.11929
5.19	3.04988
5.2	3.07554
5.21	3.12291
5.22	3.09758
5.23	3.09528
5.24	3.11008
5.25	3.09692
5.26	3.0864
5.27	3.11699
5.28	3.10449
5.29	3.1489
5.3	3.13772
5.31	3.13804
5.32	3.13673
5.33	3.08212
5.34	3.1216
5.35	3.09857
5.36	3.0841
5.37	3.09331
5.38	3.06469
5.39	3.05383
5.4	3.11239
5.41	3.11765
5.42	3.15351
5.43	3.11502
5.44	3.10219
5.45	3.09561
5.46	3.08048
5.47	3.09232
5.48	3.07127
5.49	3.09692
5.5	3.0989
5.51	3.07291
5.52	3.07094
5.53	3.09166
5.54	3.09758
5.55	3.07258
5.56	3.10449
5.57	3.06436
5.58	3.06765
5.59	3.12456
5.6	3.09791
5.61	3.12094
5.62	3.10844
5.63	3.08245
5.64	3.07817
5.65	3.09791
5.66	3.12949
5.67	3.0864
5.68	3.09528
5.69	3.09133
5.7	3.09989
5.71	3.07423
5.72	3.07883
5.73	3.11436
5.74	3.116
5.75	3.08442
5.76	3.07094
5.77	3.06863
5.78	3.0966
5.79	3.11008
5.8	3.0716
5.81	3.08673
5.82	3.09692
5.83	3.11041
5.84	3.1091
5.85	3.09133
5.86	3.07719
5.87	3.04594
5.88	3.07258
5.89	3.07686
5.9	3.09561
5.91	3.07785
5.92	3.07883
5.93	3.09923
5.94	3.091
5.95	3.0762
5.96	3.08969
5.97	3.09725
5.98	3.09133
5.99	3.09725
6	3.10054
6.01	3.09002
6.02	3.10318
6.03	3.11831
6.04	3.12225
6.05	3.08903
6.06	3.1114
6.07	3.07225
6.08	3.10515
6.09	3.06929
6.1	3.08673
6.11	3.07686
6.12	3.06633
6.13	3.05613
6.14	3.0785
6.15	3.0864
6.16	3.10186
6.17	3.08903
6.18	3.04462
6.19	3.07916
6.2	3.06074
6.21	3.04988
6.22	3.07061
6.23	3.07686
6.24	3.11074
6.25	3.10285
6.26	3.06962
6.27	3.07883
6.28	3.0535
6.29	3.06666
6.3	3.08179
6.31	3.08113
6.32	3.06502
6.33	3.06633
6.34	3.05679
6.35	3.05975
6.36	3.08936
6.37	3.07719
6.38	3.08245
6.39	3.04561
6.4	3.08245
6.41	3.05153
6.42	3.10054
6.43	3.08936
6.44	3.10383
6.45	3.04791
6.46	3.09002
6.47	3.07817
6.48	3.07949
6.49	3.0739
6.5	3.08048
6.51	3.09725
6.52	3.06304
6.53	3.08311
6.54	3.07916
6.55	3.0739
6.56	3.0716
6.57	3.10318
6.58	3.08903
6.59	3.04495
6.6	3.06567
6.61	3.08048
6.62	3.07192
6.63	3.07686
6.64	3.06863
6.65	3.08969
6.66	3.06765
6.67	3.06732
6.68	3.09199
6.69	3.0637
6.7	3.06074
6.71	3.07521
6.72	3.0716
6.73	3.07127
6.74	3.07225
6.75	3.05581
6.76	3.06173
6.77	3.0966
6.78	3.06074
6.79	3.08541
6.8	3.05877
6.81	3.03969
6.82	3.06107
6.83	3.06929
6.84	3.08442
6.85	3.07456
6.86	3.07094
6.87	3.06041
6.88	3.05646
6.89	3.04923
6.9	3.0716
6.91	3.07785
6.92	3.07357
6.93	3.0535
6.94	3.07883
6.95	3.05383
6.96	3.06962
6.97	3.06831
6.98	3.09002
6.99	3.06666
7	3.07291
7.01	3.06896
7.02	3.06041
7.03	3.08475
7.04	3.08837
7.05	3.07357
7.06	3.0637
7.07	3.05877
7.08	3.07061
7.09	3.05482
7.1	3.03673
7.11	3.05877
7.12	3.04594
7.13	3.08804
7.14	3.05548
7.15	3.03212
7.16	3.07192
7.17	3.07225
7.18	3.06206
7.19	3.05778
7.2	3.05153
7.21	3.07587
7.22	3.03705
7.23	3.06995
7.24	3.08508
7.25	3.05021
7.26	3.0841
7.27	3.10745
7.28	3.09429
7.29	3.08048
7.3	3.07719
7.31	3.08311
7.32	3.07883
7.33	3.07817
7.34	3.04002
7.35	3.03245
7.36	3.04363
7.37	3.03409
7.38	3.03245
7.39	3.03837
7.4	3.07291
7.41	3.07357
7.42	3.08146
7.43	3.06206
7.44	3.05021
7.45	3.0614
7.46	3.04462
7.47	3.03344
7.48	3.06403
7.49	3.04692
7.5	3.05942
7.51	3.06403
7.52	3.07258
7.53	3.06107
7.54	3.07258
7.55	3.04067
7.56	3.05284
7.57	3.05284
7.58	3.08442
7.59	3.05186
7.6	3.05745
7.61	3.01863
7.62	3.04791
7.63	3.04363
7.64	3.0364
7.65	3.06008
7.66	3.03574
7.67	3.04659
7.68	3.04988
7.69	3.03409
7.7	3.05252
7.71	3.04002
7.72	3.05482
7.73	3.04758
7.74	3.06666
7.75	3.04627
7.76	3.05548
7.77	3.04692
7.78	3.06962
7.79	3.03278
7.8	3.07423
7.81	3.08245
7.82	3.041
7.83	3.04791
7.84	3.08179
7.85	3.04528
7.86	3.03837
7.87	3.05054
7.88	3.05909
7.89	3.0364
7.9	3.04298
7.91	3.041
7.92	3.05482
7.93	3.04232
7.94	3.05712
7.95	3.03804
7.96	3.05383
7.97	3.08837
7.98	3.06403
7.99	3.00975
8	3.06074
8.01	3.08113
8.02	3.05383
8.03	3.07719
8.04	3.02982
8.05	3.06436
8.06	3.06534
8.07	3.06896
8.08	3.07324
8.09	3.04857
8.1	3.06107
8.11	3.03015
8.12	3.03541
8.13	3.06534
8.14	3.041
8.15	3.03146
8.16	3.05745
8.17	3.02291
8.18	3.0535
8.19	3.02291
8.2	3.04265
8.21	3.08475
8.22	3.06107
8.23	3.0387
8.24	3.04034
8.25	3.02126
8.26	3.07883
8.27	3.07949
8.28	3.0489
8.29	3.00646
8.3	3.06304
8.31	3.05284
8.32	3.0489
8.33	3.0262
8.34	3.02423
8.35	3.01107
8.36	2.99659
8.37	3.04955
8.38	3.02719
8.39	3.04594
8.4	3.06469
8.41	3.04955
8.42	3.01666
8.43	3.0512
8.44	3.02554
8.45	3.01863
8.46	3.0308
8.47	3.05054
8.48	3.04791
8.49	3.05515
8.5	3.05153
8.51	3.06403
8.52	3.04988
8.53	3.0433
8.54	3.04528
8.55	3.02751
8.56	3.04791
8.57	3.0239
8.58	3.06567
8.59	3.06567
8.6	3.07686
8.61	3.04627
8.62	3.03278
8.63	3.04396
8.64	3.03936
8.65	3.0614
8.66	3.07324
8.67	3.06304
8.68	3.0739
8.69	3.04133
8.7	3.01962
8.71	3.03179
8.72	3.05449
8.73	3.08113
8.74	3.0308
8.75	3.04857
8.76	3.03673
8.77	3.04429
8.78	3.05548
8.79	3.03508
8.8	3.05317
8.81	3.02653
8.82	3.04067
8.83	2.99791
8.84	3.0308
8.85	3.00679
8.86	3.02719
8.87	3.05252
8.88	3.06567
8.89	3.01501
8.9	3.01436
8.91	3.03344
8.92	3.04265
8.93	3.05646
8.94	3.05646
8.95	3.03738
8.96	3.04232
8.97	3.0535
8.98	3.0262
8.99	3.02784
9	3.0285
9.01	2.99857
9.02	3.02916
9.03	3.02817
9.04	2.99626
9.05	3.04133
9.06	3.06041
9.07	3.02916
9.08	3.02488
9.09	3.02423
9.1	3.03344
9.11	3.02357
9.12	3.016
9.13	2.99922
9.14	3.04034
9.15	3.04561
9.16	3.05021
9.17	3.02159
9.18	3.0239
9.19	3.05811
9.2	3.0308
9.21	3.03376
9.22	3.03607
9.23	3.02225
9.24	3.01271
9.25	3.01929
9.26	3.06732
9.27	3.02784
9.28	2.99955
9.29	3.03146
9.3	3.01469
9.31	3.0285
9.32	3.04232
9.33	3.01962
9.34	3.01962
9.35	3.03607
9.36	3.05021
9.37	3.02686
9.38	3.01765
9.39	3.04824
9.4	3.04758
9.41	3.06831
9.42	3.03771
9.43	3.01962
9.44	3.00449
9.45	3.00547
9.46	3.02028
9.47	3.03146
9.48	3.05186
9.49	3.03607
9.5	3.0387
9.51	3.00383
9.52	3.0114
9.53	3.03574
9.54	3.05317
9.55	3.0308
9.56	3.03212
9.57	3.04758
9.58	3.03179
9.59	3.02719
9.6	3.06074
9.61	3.00153
9.62	2.99692
9.63	3.06699
9.64	3.04133
9.65	3.00679
9.66	2.98804
9.67	3.02028
9.68	3.02817
9.69	3.01798
9.7	3.03048
9.71	3.00909
9.72	3.02751
9.73	3.01798
9.74	3.00942
9.75	2.99067
9.76	3.02159
9.77	3.04298
9.78	3.01896
9.79	3.02291
9.8	3.01896
9.81	3.02192
9.82	3.01995
9.83	3.02521
9.84	3.04692
9.85	3.02324
9.86	3.0262
9.87	3.03113
9.88	2.9933
9.89	3.0285
9.9	2.98705
9.91	3.01041
9.92	2.98376
9.93	2.99758
9.94	3.01107
9.95	3.00317
9.96	3.00482
9.97	3.00844
9.98	2.99857
9.99	3.00909
10	2.98212
10.01	2.98508
10.02	3.00284
10.03	3.03936
10.04	3.00547
10.05	2.9933
10.06	3.01172
10.07	3.02126
10.08	3.04594
10.09	3.03903
10.1	3.04429
10.11	3.0035
10.12	3.01205
10.13	3.01008
10.14	3.02521
10.15	3.02817
10.16	3.05021
10.17	3.05548
10.18	3.01863
10.19	3.05745
10.2	3.03673
10.21	3.02357
10.22	3.00712
10.23	2.96238
10.24	2.99692
10.25	3.0114
10.26	2.99791
10.27	3.01008
10.28	3.03771
10.29	3.04265
10.3	3.02028
10.31	3.01534
10.32	3.00021
10.33	3.03278
10.34	2.99297
10.35	2.99561
10.36	3.00087
10.37	3.01074
10.38	3.00449
10.39	3.01798
10.4	3.01271
10.41	3.02817
10.42	3.0137
10.43	3.00646
10.44	2.99824
10.45	3.02423
10.46	3.0035
10.47	3.01666
10.48	3.01271
10.49	3.02126
10.5	3.0285
10.51	3.00317
10.52	3.03245
10.53	3.04462
10.54	3.00712
10.55	3.00021
10.56	3.01271
10.57	3.01732
10.58	3.0137
10.59	3.00515
10.6	2.99034
10.61	3.01008
10.62	3.01403
10.63	3.05153
10.64	3.01666
10.65	2.97817
10.66	2.99692
10.67	3.00844
10.68	3.02192
10.69	3.016
10.7	3.00646
10.71	2.98574
10.72	3.00909
10.73	3.01304
10.74	3.00515
10.75	3.00909
10.76	3.01304
10.77	3.0239
10.78	3.0058
10.79	3.00317
10.8	2.99067
10.81	3.00646
10.82	3.02258
10.83	2.98936
10.84	3.02126
10.85	2.98179
10.86	3.02225
10.87	3.02719
10.88	3.02126
10.89	2.97916
10.9	2.97488
10.91	3.00449
10.92	2.98771
10.93	3.00876
10.94	3.04528
10.95	3.03344
10.96	3.02949
10.97	2.99199
10.98	3.00712
10.99	3.00251
11	3.02719
11.01	3.02258
11.02	3.01271
11.03	3.01765
11.04	2.99034
11.05	2.98278
11.06	3.00317
11.07	3.00778
11.08	2.9683
11.09	2.97093
11.1	3.00876
11.11	3.02554
11.12	3.02357
11.13	3.00186
11.14	3.00844
11.15	3.00975
11.16	3.0239
11.17	2.99067
11.18	2.97521
11.19	2.97784
11.2	3.0035
11.21	3.01041
11.22	3.02258
11.23	3.00087
11.24	2.99626
11.25	2.99824
11.26	2.98607
11.27	3.01304
11.28	2.99988
11.29	3.00811
11.3	3.01929
11.31	2.99758
11.32	3.00547
11.33	3.02916
11.34	3.00745
11.35	3.00482
11.36	2.97159
11.37	2.96863
11.38	2.97949
11.39	3.01337
11.4	2.99955
11.41	3.01172
11.42	3.00251
11.43	3.01469
11.44	3.02916
11.45	2.96666
11.46	2.99199
11.47	3.01765
11.48	2.991
11.49	2.99133
11.5	3.00844
11.51	2.98475
11.52	2.99955
11.53	2.99791
11.54	3.00383
11.55	3.00317
11.56	2.99692
11.57	3.0239
11.58	3.01995
11.59	2.99824
11.6	2.98409
11.61	3.01205
11.62	3.0137
11.63	3.00383
11.64	2.98442
11.65	3.00646
11.66	2.98475
11.67	2.97357
11.68	3.00679
11.69	3.01469
11.7	3.02784
11.71	2.98343
11.72	2.97126
11.73	3.02719
11.74	3.04199
11.75	3.01107
11.76	3.016
11.77	2.99593
11.78	3.00284
11.79	3.00219
11.8	3.03442
11.81	3.0262
11.82	2.99626
11.83	3.00383
11.84	3.02291
11.85	2.98245
11.86	2.98311
11.87	3.02784
11.88	2.96962
11.89	2.97422
11.9	2.99659
11.91	2.99857
11.92	2.98968
11.93	2.97916
11.94	3.00876
11.95	2.99955
11.96	2.99692
11.97	3.01172
11.98	3.01074
11.99	2.98179
12	2.96468
12.01	3.00482
12.02	3.0183
12.03	3.00317
12.04	2.99396
12.05	3.00613
12.06	3.01304
12.07	2.98508
12.08	2.98278
12.09	3.00942
12.1	3.03705
12.11	2.97192
12.12	2.9637
12.13	2.96238
12.14	2.97949
12.15	3.01107
12.16	2.96435
12.17	2.99297
12.18	2.98014
12.19	2.9808
12.2	2.99001
12.21	2.97883
12.22	3.01567
12.23	3.04199
12.24	2.9989
12.25	2.99593
12.26	2.97653
12.27	2.94856
12.28	2.96633
12.29	3.0012
12.3	2.99692
12.31	3.00613
12.32	2.99166
12.33	2.97587
12.34	2.96666
12.35	2.96797
12.36	2.97784
12.37	2.9887
12.38	2.96896
12.39	3.00251
12.4	2.98541
12.41	2.99758
12.42	3.02751
12.43	3.00712
12.44	3.00679
12.45	2.97422
12.46	2.95514
12.47	2.98047
12.48	2.98047
12.49	2.98014
12.5	2.98343
12.51	2.97225
12.52	3.00449
12.53	2.98113
12.54	3.0137
12.55	3.00942
12.56	3.00186
12.57	3.01008
12.58	3.0183
12.59	2.99955
12.6	3.00909
12.61	3.02554
12.62	3.00646
12.63	2.9808
12.64	2.99955
12.65	3.00876
12.66	3.01238
12.67	3.01337
12.68	3.00844
12.69	3.00942
12.7	3.01501
12.71	2.9864
12.72	2.99133
12.73	2.99659
12.74	2.9808
12.75	2.97982
12.76	3.00186
12.77	2.99955
12.78	2.96107
12.79	2.99034
12.8	2.97718
12.81	2.991
12.82	3.00679
12.83	3.00416
12.84	2.99692
12.85	3.00383
12.86	2.98311
12.87	3.00284
12.88	3.00679
12.89	3.0012
12.9	3.01436
12.91	2.96534
12.92	2.95909
12.93	2.96929
12.94	2.98014
12.95	3.00482
12.96	2.96403
12.97	2.99297
12.98	3.00186
12.99	2.97093
13	2.94166
13.01	2.97916
13.02	2.98146
13.03	2.97883
13.04	2.97455
13.05	2.97554
13.06	2.98705
13.07	2.96468
13.08	2.98936
13.09	2.98014
13.1	2.98936
13.11	3.00745
13.12	2.99824
13.13	2.95679
13.14	2.97686
13.15	2.9683
13.16	2.98278
13.17	2.99363
13.18	2.98113
13.19	3.00975
13.2	2.97916
13.21	3.01896
13.22	3.00646
13.23	2.95547
13.24	2.97061
13.25	2.97686
13.26	2.96699
13.27	2.96633
13.28	2.96139
13.29	2.96403
13.3	2.96435
13.31	2.97455
13.32	2.96534
13.33	2.97324
13.34	2.98245
13.35	2.9933
13.36	2.97028
13.37	2.95218
13.38	2.97093
13.39	2.98672
13.4	2.98508
13.41	3.0035
13.42	2.99528
13.43	2.98705
13.44	2.99232
13.45	2.96699
13.46	3.00219
13.47	2.97061
13.48	2.98212
13.49	2.966
13.5	2.96139
13.51	2.98113
13.52	3.0012
13.53	2.98245
13.54	3.01271
13.55	3.01436
13.56	2.99922
13.57	3.00613
13.58	3.02817
13.59	2.99067
13.6	2.98113
13.61	2.94528
13.62	2.9808
13.63	2.98376
13.64	2.98574
13.65	2.94791
13.66	2.99133
13.67	2.95679
13.68	2.96271
13.69	2.941
13.7	2.97521
13.71	2.98212
13.72	2.9785
13.73	2.98278
13.74	2.94199
13.75	2.94856
