"BIO-KINE ASCII FILE"
"_COMMENT"	"MOS-500 Spectrometer"
"_COMMENT"	"Kinetics measurement"
"_COMMENT"	"Y Unit : Volt,  X Unit : s"
"_COMMENT"	"Excitation wavelength : 380 nm"
"_COMMENT"	"Fentes bandwidth =  1 nm"
"_COMMENT"	"HV= 750V"
"_COMMENT"	"Timebase  1 =  .01 s   3001 pts"
"_SFM"	"SFM-400 /S  Advanced mode"
"_SFM"	"Ratio : S1: 2.5, S2: 0, S3: 0, S4: 1"
"_SFM"	"Content : S1: , S2: , S3: , S4:"
"_SFM"	"Concentration : S1: , S2: , S3: , S4:"
"_SFM"	"Total volume : 209 µl  Flow : 3.5 mL/s"
"_SFM"	"Acquisition start :  10 ms before stop"
"_SFM"	"cuve=FC-15, s1=10 ml , s2=10 ml , s3=10 ml , s4=1.9 ml"
"_UNITX"	"s"
"_UNITY"	"Volt"
"_DELTAX"	0
"_DATA"
1e-300	7.13488
0.01	7.65331
0.02	7.76351
0.03	7.67864
0.04	7.71022
0.05	7.70364
0.06	7.69311
0.07	7.72371
0.08	7.71581
0.09	7.72206
0.1	7.72042
0.11	7.72535
0.12	7.72963
0.13	7.71121
0.14	7.70331
0.15	7.72338
0.16	7.72469
0.17	7.71055
0.18	7.70496
0.19	7.69838
0.2	7.68522
0.21	7.69443
0.22	7.69081
0.23	7.67535
0.24	7.69739
0.25	7.70331
0.26	7.67601
0.27	7.68193
0.28	7.69048
0.29	7.67601
0.3	7.65923
0.31	7.66252
0.32	7.6668
0.33	7.65759
0.34	7.65364
0.35	7.64048
0.36	7.63226
0.37	7.62633
0.38	7.62206
0.39	7.62831
0.4	7.60528
0.41	7.6112
0.42	7.61055
0.43	7.60101
0.44	7.59311
0.45	7.56614
0.46	7.57732
0.47	7.58258
0.48	7.58324
0.49	7.56778
0.5	7.56318
0.51	7.58883
0.52	7.5737
0.53	7.56548
0.54	7.55824
0.55	7.52864
0.56	7.52239
0.57	7.54475
0.58	7.53982
0.59	7.53192
0.6	7.5214
0.61	7.51975
0.62	7.49804
0.63	7.50232
0.64	7.50232
0.65	7.50067
0.66	7.50363
0.67	7.49212
0.68	7.48324
0.69	7.47337
0.7	7.49245
0.71	7.46975
0.72	7.47107
0.73	7.46712
0.74	7.46219
0.75	7.47008
0.76	7.45396
0.77	7.42436
0.78	7.4237
0.79	7.42337
0.8	7.42501
0.81	7.43324
0.82	7.40988
0.83	7.40791
0.84	7.40955
0.85	7.39014
0.86	7.38028
0.87	7.3681
0.88	7.37107
0.89	7.35231
0.9	7.3533
0.91	7.36416
0.92	7.36843
0.93	7.35363
0.94	7.34541
0.95	7.34639
0.96	7.3487
0.97	7.326
0.98	7.30495
0.99	7.29738
1	7.29902
1.01	7.30922
1.02	7.29541
1.03	7.29606
1.04	7.28554
1.05	7.276
1.06	7.29442
1.07	7.27238
1.08	7.28389
1.09	7.27139
1.1	7.27008
1.11	7.23422
1.12	7.2408
1.13	7.24573
1.14	7.25363
1.15	7.23488
1.16	7.24376
1.17	7.22468
1.18	7.22698
1.19	7.20428
1.2	7.18817
1.21	7.18257
1.22	7.1908
1.23	7.2056
1.24	7.18126
1.25	7.18718
1.26	7.18685
1.27	7.14836
1.28	7.16843
1.29	7.15198
1.3	7.1579
1.31	7.14211
1.32	7.14606
1.33	7.14672
1.34	7.12599
1.35	7.11678
1.36	7.10658
1.37	7.09573
1.38	7.09343
1.39	7.08619
1.4	7.09507
1.41	7.09474
1.42	7.08849
1.43	7.07961
1.44	7.05527
1.45	7.06218
1.46	7.0556
1.47	7.06514
1.48	7.05954
1.49	7.05461
1.5	7.03389
1.51	7.02007
1.52	7.00625
1.53	7.02106
1.54	7.0306
1.55	6.99704
1.56	7.00033
1.57	6.99145
1.58	6.99967
1.59	6.9704
1.6	6.97138
1.61	6.96283
1.62	6.975
1.63	6.9329
1.64	6.93783
1.65	6.95395
1.66	6.94441
1.67	6.94112
1.68	6.93487
1.69	6.93191
1.7	6.92665
1.71	6.92829
1.72	6.90329
1.73	6.89211
1.74	6.89309
1.75	6.89243
1.76	6.89046
1.77	6.88882
1.78	6.88487
1.79	6.87928
1.8	6.85921
1.81	6.87237
1.82	6.86678
1.83	6.84803
1.84	6.82631
1.85	6.8296
1.86	6.82862
1.87	6.82566
1.88	6.81316
1.89	6.80723
1.9	6.80592
1.91	6.80822
1.92	6.79802
1.93	6.77829
1.94	6.77566
1.95	6.79473
1.96	6.79441
1.97	6.80329
1.98	6.79638
1.99	6.77664
2	6.76875
2.01	6.77269
2.02	6.76612
2.03	6.77039
2.04	6.74408
2.05	6.73421
2.06	6.74736
2.07	6.73881
2.08	6.73881
2.09	6.72598
2.1	6.71611
2.11	6.71348
2.12	6.69901
2.13	6.71447
2.14	6.69769
2.15	6.69407
2.16	6.68289
2.17	6.68026
2.18	6.66282
2.19	6.65559
2.2	6.66545
2.21	6.64934
2.22	6.66019
2.23	6.63552
2.24	6.62401
2.25	6.61973
2.26	6.61874
2.27	6.61743
2.28	6.62565
2.29	6.63519
2.3	6.62203
2.31	6.61907
2.32	6.58881
2.33	6.5967
2.34	6.58815
2.35	6.57565
2.36	6.58387
2.37	6.57006
2.38	6.56677
2.39	6.55854
2.4	6.56479
2.41	6.55986
2.42	6.54177
2.43	6.53815
2.44	6.54736
2.45	6.53848
2.46	6.53617
2.47	6.52894
2.48	6.53585
2.49	6.52203
2.5	6.48683
2.51	6.48091
2.52	6.49802
2.53	6.46907
2.54	6.46907
2.55	6.46446
2.56	6.47861
2.57	6.48387
2.58	6.46183
2.59	6.46479
2.6	6.46545
2.61	6.45854
2.62	6.44505
2.63	6.44012
2.64	6.42729
2.65	6.4263
2.66	6.40328
2.67	6.40459
2.68	6.41018
2.69	6.39308
2.7	6.39374
2.71	6.3888
2.72	6.40064
2.73	6.39078
2.74	6.38189
2.75	6.38124
2.76	6.35492
2.77	6.37038
2.78	6.36874
2.79	6.349
2.8	6.34472
2.81	6.34571
2.82	6.33551
2.83	6.34768
2.84	6.33814
2.85	6.33518
2.86	6.34374
2.87	6.32663
2.88	6.29998
2.89	6.29867
2.9	6.30163
2.91	6.29571
2.92	6.30623
2.93	6.28354
2.94	6.28321
2.95	6.29275
2.96	6.28025
2.97	6.26183
2.98	6.26215
2.99	6.26544
3	6.2536
3.01	6.24669
3.02	6.24932
3.03	6.25327
3.04	6.23321
3.05	6.21807
3.06	6.22696
3.07	6.21939
3.08	6.21347
3.09	6.21182
3.1	6.20788
3.11	6.19373
3.12	6.19702
3.13	6.17827
3.14	6.18222
3.15	6.19472
3.16	6.19538
3.17	6.17564
3.18	6.16741
3.19	6.17761
3.2	6.17465
3.21	6.16478
3.22	6.16676
3.23	6.15985
3.24	6.14603
3.25	6.1263
3.26	6.12695
3.27	6.13222
3.28	6.12827
3.29	6.13222
3.3	6.11412
3.31	6.12465
3.32	6.11906
3.33	6.10162
3.34	6.11544
3.35	6.08847
3.36	6.09143
3.37	6.0957
3.38	6.08649
3.39	6.07432
3.4	6.06807
3.41	6.07596
3.42	6.05623
3.43	6.07333
3.44	6.05261
3.45	6.04077
3.46	6.03649
3.47	6.04175
3.48	6.03649
3.49	6.0457
3.5	6.03386
3.51	6.0207
3.52	6.01281
3.53	6.01116
3.54	6.01313
3.55	6.01412
3.56	6.00327
3.57	5.97563
3.58	5.99603
3.59	5.98945
3.6	5.97892
3.61	5.98123
3.62	5.96478
3.63	5.96445
3.64	5.95984
3.65	5.95326
3.66	5.95162
3.67	5.9605
3.68	5.95491
3.69	5.9355
3.7	5.92958
3.71	5.93484
3.72	5.93484
3.73	5.93287
3.74	5.92267
3.75	5.91905
3.76	5.92136
3.77	5.90425
3.78	5.89767
3.79	5.90589
3.8	5.8901
3.81	5.8753
3.82	5.87826
3.83	5.88254
3.84	5.88484
3.85	5.87892
3.86	5.86576
3.87	5.87859
3.88	5.85918
3.89	5.87267
3.9	5.8605
3.91	5.84306
3.92	5.83912
3.93	5.84833
3.94	5.84471
3.95	5.83385
3.96	5.83517
3.97	5.83155
3.98	5.79964
3.99	5.80359
4	5.79635
4.01	5.80359
4.02	5.80129
4.03	5.79273
4.04	5.77925
4.05	5.76082
4.06	5.77661
4.07	5.77629
4.08	5.77925
4.09	5.76181
4.1	5.78221
4.11	5.76905
4.12	5.74997
4.13	5.74701
4.14	5.74339
4.15	5.74503
4.16	5.74964
4.17	5.74043
4.18	5.73286
4.19	5.72332
4.2	5.71543
4.21	5.70688
4.22	5.70622
4.23	5.70326
4.24	5.70457
4.25	5.69437
4.26	5.70095
4.27	5.70326
4.28	5.69898
4.29	5.68286
4.3	5.68122
4.31	5.67957
4.32	5.67233
4.33	5.67858
4.34	5.66214
4.35	5.66312
4.36	5.66148
4.37	5.65128
4.38	5.64536
4.39	5.63681
4.4	5.63911
4.41	5.64372
4.42	5.62793
4.43	5.60523
4.44	5.60358
4.45	5.6197
4.46	5.62299
4.47	5.61016
4.48	5.59273
4.49	5.58911
4.5	5.59042
4.51	5.59536
4.52	5.59898
4.53	5.59207
4.54	5.59075
4.55	5.57891
4.56	5.58417
4.57	5.57233
4.58	5.56937
4.59	5.56937
4.6	5.57069
4.61	5.57332
4.62	5.55523
4.63	5.56246
4.64	5.54602
4.65	5.54371
4.66	5.55884
4.67	5.53615
4.68	5.54832
4.69	5.52726
4.7	5.51838
4.71	5.52266
4.72	5.52003
4.73	5.50983
4.74	5.5118
4.75	5.5197
4.76	5.51213
4.77	5.51312
4.78	5.51608
4.79	5.49865
4.8	5.50851
4.81	5.51476
4.82	5.49404
4.83	5.48022
4.84	5.47332
4.85	5.47595
4.86	5.48055
4.87	5.45325
4.88	5.44667
4.89	5.4391
4.9	5.45818
4.91	5.46838
4.92	5.44799
4.93	5.44733
4.94	5.44206
4.95	5.44733
4.96	5.4493
4.97	5.43647
4.98	5.43483
4.99	5.42627
5	5.43812
5.01	5.41575
5.02	5.42792
5.03	5.42134
5.04	5.41608
5.05	5.40391
5.06	5.40029
5.07	5.41048
5.08	5.40358
5.09	5.40687
5.1	5.39108
5.11	5.39206
5.12	5.37858
5.13	5.38219
5.14	5.37726
5.15	5.37364
5.16	5.37792
5.17	5.37134
5.18	5.36673
5.19	5.35917
5.2	5.36904
5.21	5.38121
5.22	5.35423
5.23	5.34765
5.24	5.34732
5.25	5.36048
5.26	5.34765
5.27	5.3391
5.28	5.33318
5.29	5.34996
5.3	5.33943
5.31	5.31607
5.32	5.33384
5.33	5.31311
5.34	5.30917
5.35	5.32825
5.36	5.3118
5.37	5.31147
5.38	5.31344
5.39	5.29469
5.4	5.28976
5.41	5.28614
5.42	5.28614
5.43	5.28022
5.44	5.29732
5.45	5.28778
5.46	5.27331
5.47	5.27726
5.48	5.26903
5.49	5.28351
5.5	5.27857
5.51	5.25752
5.52	5.24864
5.53	5.24732
5.54	5.27265
5.55	5.2539
5.56	5.26048
5.57	5.25291
5.58	5.24107
5.59	5.23778
5.6	5.23252
5.61	5.2516
5.62	5.2391
5.63	5.22923
5.64	5.24634
5.65	5.22923
5.66	5.22364
5.67	5.22528
5.68	5.21706
5.69	5.22462
5.7	5.20752
5.71	5.21147
5.72	5.21311
5.73	5.2062
5.74	5.19403
5.75	5.18614
5.76	5.19897
5.77	5.19732
5.78	5.196
5.79	5.20587
5.8	5.18153
5.81	5.1664
5.82	5.17857
5.83	5.17396
5.84	5.18416
5.85	5.16245
5.86	5.16245
5.87	5.16969
5.88	5.15127
5.89	5.15061
5.9	5.15324
5.91	5.16903
5.92	5.16969
5.93	5.15324
5.94	5.15192
5.95	5.15587
5.96	5.13646
5.97	5.13416
5.98	5.12758
5.99	5.13219
6	5.121
6.01	5.11771
6.02	5.1164
6.03	5.12923
6.04	5.11508
6.05	5.11344
6.06	5.1085
6.07	5.11804
6.08	5.11377
6.09	5.10357
6.1	5.10719
6.11	5.10784
6.12	5.09896
6.13	5.08284
6.14	5.08317
6.15	5.0789
6.16	5.08844
6.17	5.07232
6.18	5.08153
6.19	5.07594
6.2	5.0733
6.21	5.06311
6.22	5.07067
6.23	5.05192
6.24	5.06311
6.25	5.06212
6.26	5.05061
6.27	5.06245
6.28	5.05718
6.29	5.0483
6.3	5.03679
6.31	5.04863
6.32	5.03646
6.33	5.06409
6.34	5.03909
6.35	5.04008
6.36	5.03745
6.37	5.0358
6.38	5.04436
6.39	5.03449
6.4	5.02396
6.41	5.03054
6.42	5.02725
6.43	5.01935
6.44	5.02067
6.45	5.01245
6.46	5.01672
6.47	5.00751
6.48	5.01541
6.49	5.02166
6.5	5.0108
6.51	5.00521
6.52	4.99699
6.53	4.99896
6.54	5.00554
6.55	4.98613
6.56	4.98843
6.57	4.97429
6.58	4.98712
6.59	4.97626
6.6	4.97889
6.61	4.97429
6.62	4.98284
6.63	4.97692
6.64	4.98481
6.65	4.97955
6.66	4.96606
6.67	4.96639
6.68	4.96179
6.69	4.96508
6.7	4.96672
6.71	4.95685
6.72	4.95521
6.73	4.9585
6.74	4.96277
6.75	4.946
6.76	4.94271
6.77	4.94337
6.78	4.94501
6.79	4.93777
6.8	4.93744
6.81	4.94106
6.82	4.93021
6.83	4.92461
6.84	4.93383
6.85	4.91804
6.86	4.9154
6.87	4.92626
6.88	4.92297
6.89	4.91376
6.9	4.92231
6.91	4.90981
6.92	4.8983
6.93	4.89929
6.94	4.89731
6.95	4.91376
6.96	4.9085
6.97	4.896
6.98	4.88678
6.99	4.88843
7	4.89632
7.01	4.90257
7.02	4.88876
7.03	4.89435
7.04	4.87955
7.05	4.89369
7.06	4.87198
7.07	4.87922
7.08	4.88678
7.09	4.87034
7.1	4.86145
7.11	4.88086
7.12	4.87428
7.13	4.88251
7.14	4.8608
7.15	4.86902
7.16	4.86869
7.17	4.8733
7.18	4.84994
7.19	4.85422
7.2	4.8552
7.21	4.84895
7.22	4.84863
7.23	4.83251
7.24	4.83843
7.25	4.8427
7.26	4.84698
7.27	4.84468
7.28	4.83941
7.29	4.85586
7.3	4.84501
7.31	4.8427
7.32	4.84402
7.33	4.83909
7.34	4.83251
7.35	4.8279
7.36	4.83053
7.37	4.82593
7.38	4.81836
7.39	4.8131
7.4	4.82066
7.41	4.82428
7.42	4.81047
7.43	4.81474
7.44	4.82461
7.45	4.81376
7.46	4.81343
7.47	4.80849
7.48	4.80816
7.49	4.8006
7.5	4.77856
7.51	4.79698
7.52	4.80257
7.53	4.79764
7.54	4.80093
7.55	4.7881
7.56	4.79336
7.57	4.78645
7.58	4.78152
7.59	4.78086
7.6	4.79533
7.61	4.78843
7.62	4.77329
7.63	4.77066
7.64	4.77724
7.65	4.7802
7.66	4.76343
7.67	4.76869
7.68	4.76704
7.69	4.75027
7.7	4.75948
7.71	4.75981
7.72	4.74402
7.73	4.74764
7.74	4.74994
7.75	4.74764
7.76	4.73875
7.77	4.7404
7.78	4.74994
7.79	4.73514
7.8	4.74237
7.81	4.73579
7.82	4.74468
7.83	4.74665
7.84	4.74237
7.85	4.73185
7.86	4.74336
7.87	4.73514
7.88	4.74171
7.89	4.73908
7.9	4.7325
7.91	4.72
7.92	4.70816
7.93	4.7177
7.94	4.70684
7.95	4.72231
7.96	4.72428
7.97	4.71573
7.98	4.71277
7.99	4.71507
8	4.70816
8.01	4.70487
8.02	4.71342
8.03	4.70816
8.04	4.71573
8.05	4.70027
8.06	4.70388
8.07	4.70224
8.08	4.69467
8.09	4.70059
8.1	4.69994
8.11	4.69467
8.12	4.67724
8.13	4.68579
8.14	4.69467
8.15	4.68875
8.16	4.68908
8.17	4.68184
8.18	4.69138
8.19	4.67855
8.2	4.66836
8.21	4.67
8.22	4.67428
8.23	4.66507
8.24	4.67033
8.25	4.68119
8.26	4.69369
8.27	4.68908
8.28	4.68678
8.29	4.66737
8.3	4.66178
8.31	4.65882
8.32	4.65651
8.33	4.66112
8.34	4.67033
8.35	4.65257
8.36	4.66079
8.37	4.64566
8.38	4.66079
8.39	4.64336
8.4	4.64303
8.41	4.6529
8.42	4.65816
8.43	4.65816
8.44	4.65257
8.45	4.65553
8.46	4.65553
8.47	4.6348
8.48	4.64237
8.49	4.65882
8.5	4.63415
8.51	4.62987
8.52	4.62592
8.53	4.64237
8.54	4.64204
8.55	4.64928
8.56	4.63809
8.57	4.62197
8.58	4.61342
8.59	4.61868
8.6	4.62888
8.61	4.63151
8.62	4.64599
8.63	4.61803
8.64	4.60388
8.65	4.62329
8.66	4.6223
8.67	4.62822
8.68	4.61934
8.69	4.62625
8.7	4.62855
8.71	4.6075
8.72	4.60257
8.73	4.60618
8.74	4.6075
8.75	4.59303
8.76	4.60684
8.77	4.61342
8.78	4.60289
8.79	4.59566
8.8	4.59401
8.81	4.5996
8.82	4.59763
8.83	4.59467
8.84	4.58645
8.85	4.59401
8.86	4.59401
8.87	4.59105
8.88	4.5927
8.89	4.59303
8.9	4.5746
8.91	4.58513
8.92	4.595
8.93	4.57921
8.94	4.58546
8.95	4.57066
8.96	4.56967
8.97	4.58809
8.98	4.57691
8.99	4.57066
9	4.57724
9.01	4.57296
9.02	4.57362
9.03	4.57428
9.04	4.56934
9.05	4.5723
9.06	4.58085
9.07	4.56441
9.08	4.58381
9.09	4.57954
9.1	4.54697
9.11	4.56079
9.12	4.56901
9.13	4.55421
9.14	4.55256
9.15	4.55552
9.16	4.55881
9.17	4.55618
9.18	4.55881
9.19	4.5598
9.2	4.55487
9.21	4.5552
9.22	4.55849
9.23	4.55651
9.24	4.55256
9.25	4.56605
9.26	4.56671
9.27	4.55947
9.28	4.54664
9.29	4.5473
9.3	4.53743
9.31	4.53973
9.32	4.54697
9.33	4.53743
9.34	4.54105
9.35	4.54862
9.36	4.53875
9.37	4.53217
9.38	4.54072
9.39	4.54664
9.4	4.53908
9.41	4.53414
9.42	4.53381
9.43	4.53776
9.44	4.5348
9.45	4.52921
9.46	4.5223
9.47	4.52756
9.48	4.5325
9.49	4.5246
9.5	4.52855
9.51	4.52559
9.52	4.52362
9.53	4.53513
9.54	4.52658
9.55	4.52493
9.56	4.52855
9.57	4.53019
9.58	4.52098
9.59	4.51079
9.6	4.51737
9.61	4.50618
9.62	4.50552
9.63	4.51473
9.64	4.51013
9.65	4.5144
9.66	4.5098
9.67	4.5075
9.68	4.51046
9.69	4.50914
9.7	4.51046
9.71	4.49993
9.72	4.51013
9.73	4.5098
9.74	4.50026
9.75	4.49171
9.76	4.49401
9.77	4.49138
9.78	4.50158
9.79	4.49171
9.8	4.48743
9.81	4.49434
9.82	4.47657
9.83	4.48118
9.84	4.48677
9.85	4.47888
9.86	4.47986
9.87	4.47986
9.88	4.50125
9.89	4.4871
9.9	4.48052
9.91	4.4848
9.92	4.4825
9.93	4.48151
9.94	4.48579
9.95	4.48315
9.96	4.47921
9.97	4.47625
9.98	4.46703
9.99	4.45421
10	4.46802
10.01	4.46671
10.02	4.4848
10.03	4.46868
10.04	4.47625
10.05	4.46243
10.06	4.46967
10.07	4.47164
10.08	4.47329
10.09	4.47
10.1	4.47131
10.11	4.46243
10.12	4.46638
10.13	4.47657
10.14	4.47065
10.15	4.46605
10.16	4.47131
10.17	4.47329
10.18	4.47164
10.19	4.45651
10.2	4.46835
10.21	4.45289
10.22	4.46342
10.23	4.47361
10.24	4.46506
10.25	4.46572
10.26	4.47394
10.27	4.46769
10.28	4.4598
10.29	4.46177
10.3	4.4621
10.31	4.46243
10.32	4.45289
10.33	4.45059
10.34	4.44236
10.35	4.44861
10.36	4.46407
10.37	4.44993
10.38	4.4473
10.39	4.44565
10.4	4.44171
10.41	4.43217
10.42	4.45421
10.43	4.43611
10.44	4.43249
10.45	4.42953
10.46	4.43776
10.47	4.42986
10.48	4.4371
10.49	4.43414
10.5	4.42624
10.51	4.43907
10.52	4.44532
10.53	4.43578
10.54	4.43447
10.55	4.43315
10.56	4.43151
10.57	4.4371
10.58	4.43118
10.59	4.42789
10.6	4.42098
10.61	4.42361
10.62	4.42624
10.63	4.42427
10.64	4.41769
10.65	4.42098
10.66	4.41901
10.67	4.42624
10.68	4.42559
10.69	4.41901
10.7	4.41901
10.71	4.41901
10.72	4.42295
10.73	4.43315
10.74	4.41835
10.75	4.42032
10.76	4.42131
10.77	4.41341
10.78	4.41868
10.79	4.41473
10.8	4.41999
10.81	4.40026
10.82	4.41605
10.83	4.41868
10.84	4.43315
10.85	4.43447
10.86	4.41243
10.87	4.40881
10.88	4.40026
10.89	4.40749
10.9	4.4121
10.91	4.4098
10.92	4.40091
10.93	4.39927
10.94	4.40124
10.95	4.40453
10.96	4.40651
10.97	4.39993
10.98	4.39269
10.99	4.40486
11	4.40519
11.01	4.41045
11.02	4.41638
11.03	4.39894
11.04	4.39762
11.05	4.38512
11.06	4.39927
11.07	4.39466
11.08	4.40157
11.09	4.40256
11.1	4.39532
11.11	4.40026
11.12	4.40256
11.13	4.39466
11.14	4.39401
11.15	4.39236
11.16	4.40091
11.17	4.38677
11.18	4.39269
11.19	4.39664
11.2	4.38348
11.21	4.38249
11.22	4.39434
11.23	4.39434
11.24	4.38545
11.25	4.38874
11.26	4.39236
11.27	4.38282
11.28	4.38414
11.29	4.37887
11.3	4.38183
11.31	4.36901
11.32	4.37295
11.33	4.38118
11.34	4.37723
11.35	4.39006
11.36	4.38151
11.37	4.36012
11.38	4.36604
11.39	4.38019
11.4	4.38315
11.41	4.38118
11.42	4.37098
11.43	4.3667
11.44	4.37394
11.45	4.38183
11.46	4.39006
11.47	4.36637
11.48	4.36802
11.49	4.37164
11.5	4.36769
11.51	4.37558
11.52	4.38447
11.53	4.38216
11.54	4.36999
11.55	4.37789
11.56	4.37855
11.57	4.37558
11.58	4.3746
11.59	4.36604
11.6	4.3644
11.61	4.3621
11.62	4.37953
11.63	4.3871
11.64	4.36901
11.65	4.36868
11.66	4.36769
11.67	4.36868
11.68	4.36703
11.69	4.36703
11.7	4.35782
11.71	4.36111
11.72	4.35157
11.73	4.37032
11.74	4.36736
11.75	4.35453
11.76	4.36308
11.77	4.34762
11.78	4.34335
11.79	4.3723
11.8	4.34499
11.81	4.35618
11.82	4.36572
11.83	4.36243
11.84	4.3542
11.85	4.35256
11.86	4.35223
11.87	4.344
11.88	4.35486
11.89	4.3519
11.9	4.35651
11.91	4.35979
11.92	4.35749
11.93	4.34433
11.94	4.33743
11.95	4.35453
11.96	4.35848
11.97	4.36012
11.98	4.35025
11.99	4.34697
12	4.35289
12.01	4.35552
12.02	4.36736
12.03	4.35157
12.04	4.35025
12.05	4.35387
12.06	4.34302
12.07	4.34861
12.08	4.34762
12.09	4.3519
12.1	4.34368
12.11	4.34993
12.12	4.34302
12.13	4.34269
12.14	4.34697
12.15	4.33052
12.16	4.34039
12.17	4.35124
12.18	4.34664
12.19	4.33578
12.2	4.34828
12.21	4.34795
12.22	4.34433
12.23	4.34631
12.24	4.34368
12.25	4.33644
12.26	4.33578
12.27	4.33874
12.28	4.34532
12.29	4.33578
12.3	4.33216
12.31	4.34072
12.32	4.34072
12.33	4.33874
12.34	4.3394
12.35	4.34729
12.36	4.33874
12.37	4.33677
12.38	4.33282
12.39	4.3315
12.4	4.32131
12.41	4.32427
12.42	4.32394
12.43	4.33414
12.44	4.31999
12.45	4.33052
12.46	4.31933
12.47	4.33019
12.48	4.32756
12.49	4.31835
12.5	4.33414
12.51	4.33381
12.52	4.33446
12.53	4.33874
12.54	4.32493
12.55	4.31999
12.56	4.32295
12.57	4.30683
12.58	4.3065
12.59	4.32065
12.6	4.3065
12.61	4.319
12.62	4.32953
12.63	4.32164
12.64	4.31078
12.65	4.31933
12.66	4.33052
12.67	4.32493
12.68	4.31111
12.69	4.31045
12.7	4.31539
12.71	4.31242
12.72	4.32098
12.73	4.31736
12.74	4.30157
12.75	4.30782
12.76	4.3121
12.77	4.31242
12.78	4.31933
12.79	4.30519
12.8	4.30157
12.81	4.30815
12.82	4.30453
12.83	4.29795
12.84	4.30749
12.85	4.30552
12.86	4.31275
12.87	4.31539
12.88	4.30124
12.89	4.29894
12.9	4.30025
12.91	4.30519
12.92	4.30091
12.93	4.31045
12.94	4.30519
12.95	4.3121
12.96	4.31341
12.97	4.29302
12.98	4.30453
12.99	4.30519
13	4.3019
13.01	4.29335
13.02	4.31111
13.03	4.30256
13.04	4.3042
13.05	4.30387
13.06	4.29992
13.07	4.30683
13.08	4.29762
13.09	4.29466
13.1	4.27821
13.11	4.29071
13.12	4.2996
13.13	4.29565
13.14	4.29269
13.15	4.29006
13.16	4.28578
13.17	4.29828
13.18	4.30124
13.19	4.30256
13.2	4.31111
13.21	4.29861
13.22	4.29565
13.23	4.29631
13.24	4.28479
13.25	4.28874
13.26	4.29104
13.27	4.29861
13.28	4.30552
13.29	4.28052
13.3	4.29631
13.31	4.30025
13.32	4.29236
13.33	4.29367
13.34	4.29466
13.35	4.29433
13.36	4.28907
13.37	4.28907
13.38	4.2917
13.39	4.28479
13.4	4.29236
13.41	4.28775
13.42	4.27986
13.43	4.29236
13.44	4.28973
13.45	4.28249
13.46	4.28841
13.47	4.3019
13.48	4.2792
13.49	4.28117
13.5	4.29894
13.51	4.2894
13.52	4.294
13.53	4.30157
13.54	4.29663
13.55	4.28381
13.56	4.28677
13.57	4.28644
13.58	4.28249
13.59	4.28084
13.6	4.28084
13.61	4.27492
13.62	4.28413
13.63	4.27262
13.64	4.27427
13.65	4.269
13.66	4.28479
13.67	4.2769
13.68	4.27624
13.69	4.29137
13.7	4.26736
13.71	4.26966
13.72	4.27163
13.73	4.26933
13.74	4.27262
13.75	4.26473
