"BIO-KINE ASCII FILE"
"_COMMENT"	"MOS-500 Spectrometer"
"_COMMENT"	"Kinetics measurement"
"_COMMENT"	"Y Unit : Volt,  X Unit : s"
"_COMMENT"	"Excitation wavelength : 380 nm"
"_COMMENT"	"Fentes bandwidth =  1 nm"
"_COMMENT"	"HV= 1000V"
"_COMMENT"	"Timebase  1 =  .01 s   5001 pts"
"_SFM"	"SFM-400 /S  Advanced mode"
"_SFM"	"Ratio : S1: 2.5, S2: 0, S3: 0, S4: 1"
"_SFM"	"Content : S1: , S2: , S3: , S4:"
"_SFM"	"Concentration : S1: , S2: , S3: , S4:"
"_SFM"	"Total volume : 209 µl  Flow : 3.5 mL/s"
"_SFM"	"Acquisition start :  10 ms before stop"
"_SFM"	"cuve=FC-15, s1=10 ml , s2=10 ml , s3=10 ml , s4=1.9 ml"
"_UNITX"	"s"
"_UNITY"	"Volt"
"_DELTAX"	0
"_DATA"
1e-300	2.98738
0.01	2.92587
0.02	2.9262
0.03	2.99988
0.04	3.03015
0.05	3.0285
0.06	3.09758
0.07	3.09429
0.08	3.10844
0.09	3.10153
0.1	3.13311
0.11	3.15647
0.12	3.17324
0.13	3.1887
0.14	3.20482
0.15	3.18015
0.16	3.16601
0.17	3.22028
0.18	3.2216
0.19	3.17489
0.2	3.16173
0.21	3.19101
0.22	3.18739
0.23	3.20943
0.24	3.21765
0.25	3.20351
0.26	3.18838
0.27	3.15383
0.28	3.19035
0.29	3.19594
0.3	3.18574
0.31	3.21009
0.32	3.20022
0.33	3.16995
0.34	3.21338
0.35	3.19726
0.36	3.21107
0.37	3.19857
0.38	3.19495
0.39	3.17555
0.4	3.18147
0.41	3.1841
0.42	3.17851
0.43	3.17489
0.44	3.2295
0.45	3.23706
0.46	3.16962
0.47	3.2068
0.48	3.20153
0.49	3.19824
0.5	3.16732
0.51	3.17061
0.52	3.19528
0.53	3.20285
0.54	3.17127
0.55	3.17719
0.56	3.15976
0.57	3.19232
0.58	3.19331
0.59	3.16502
0.6	3.19298
0.61	3.18213
0.62	3.19561
0.63	3.20219
0.64	3.1818
0.65	3.17916
0.66	3.16798
0.67	3.17555
0.68	3.19528
0.69	3.19824
0.7	3.19002
0.71	3.19463
0.72	3.1966
0.73	3.21371
0.74	3.19265
0.75	3.16436
0.76	3.16074
0.77	3.16798
0.78	3.16568
0.79	3.17719
0.8	3.15778
0.81	3.17028
0.82	3.16634
0.83	3.14791
0.84	3.12324
0.85	3.13903
0.86	3.20252
0.87	3.18574
0.88	3.17489
0.89	3.18574
0.9	3.20285
0.91	3.15745
0.92	3.19101
0.93	3.1762
0.94	3.17127
0.95	3.17028
0.96	3.15186
0.97	3.16436
0.98	3.15482
0.99	3.16568
1	3.14857
1.01	3.17818
1.02	3.18936
1.03	3.19594
1.04	3.14726
1.05	3.15482
1.06	3.17028
1.07	3.12324
1.08	3.14528
1.09	3.15482
1.1	3.17489
1.11	3.15844
1.12	3.14035
1.13	3.17884
1.14	3.19134
1.15	3.20318
1.16	3.17028
1.17	3.17982
1.18	3.19002
1.19	3.14956
1.2	3.17587
1.21	3.20384
1.22	3.15778
1.23	3.18245
1.24	3.17324
1.25	3.16239
1.26	3.17226
1.27	3.17456
1.28	3.16798
1.29	3.16765
1.3	3.1762
1.31	3.16041
1.32	3.17094
1.33	3.1568
1.34	3.16535
1.35	3.18278
1.36	3.15712
1.37	3.12587
1.38	3.11732
1.39	3.13837
1.4	3.12752
1.41	3.13508
1.42	3.11864
1.43	3.14528
1.44	3.14561
1.45	3.15943
1.46	3.15351
1.47	3.1364
1.48	3.14726
1.49	3.14758
1.5	3.13837
1.51	3.12061
1.52	3.1341
1.53	3.16074
1.54	3.13344
1.55	3.11107
1.56	3.14232
1.57	3.14002
1.58	3.12818
1.59	3.16074
1.6	3.1489
1.61	3.15515
1.62	3.1739
1.63	3.14824
1.64	3.12127
1.65	3.16765
1.66	3.14495
1.67	3.1818
1.68	3.15318
1.69	3.16305
1.7	3.13541
1.71	3.12883
1.72	3.12522
1.73	3.13508
1.74	3.17291
1.75	3.15186
1.76	3.1387
1.77	3.14265
1.78	3.15153
1.79	3.15087
1.8	3.13114
1.81	3.14693
1.82	3.15712
1.83	3.12193
1.84	3.14758
1.85	3.15383
1.86	3.08969
1.87	3.11962
1.88	3.13706
1.89	3.13936
1.9	3.14693
1.91	3.12554
1.92	3.1035
1.93	3.15055
1.94	3.15877
1.95	3.12883
1.96	3.16601
1.97	3.13114
1.98	3.15745
1.99	3.16568
2	3.13476
2.01	3.11239
2.02	3.1035
2.03	3.08903
2.04	3.10778
2.05	3.13278
2.06	3.1262
2.07	3.08706
2.08	3.13147
2.09	3.13245
2.1	3.12949
2.11	3.13936
2.12	3.15022
2.13	3.1137
2.14	3.1216
2.15	3.12456
2.16	3.09956
2.17	3.13048
2.18	3.1387
2.19	3.12094
2.2	3.13772
2.21	3.10712
2.22	3.13081
2.23	3.1364
2.24	3.12193
2.25	3.13936
2.26	3.10712
2.27	3.1012
2.28	3.16206
2.29	3.1285
2.3	3.1466
2.31	3.10943
2.32	3.10087
2.33	3.10054
2.34	3.10745
2.35	3.09561
2.36	3.12554
2.37	3.13212
2.38	3.13772
2.39	3.13969
2.4	3.11864
2.41	3.09725
2.42	3.12456
2.43	3.13476
2.44	3.13673
2.45	3.12982
2.46	3.13245
2.47	3.10975
2.48	3.11765
2.49	3.11074
2.5	3.10186
2.51	3.1716
2.52	3.10548
2.53	3.10745
2.54	3.10778
2.55	3.12324
2.56	3.13212
2.57	3.13311
2.58	3.13377
2.59	3.13048
2.6	3.11897
2.61	3.11469
2.62	3.1012
2.63	3.06962
2.64	3.09528
2.65	3.08442
2.66	3.10712
2.67	3.1239
2.68	3.1035
2.69	3.11173
2.7	3.07587
2.71	3.07752
2.72	3.10219
2.73	3.11535
2.74	3.12291
2.75	3.116
2.76	3.091
2.77	3.09396
2.78	3.10877
2.79	3.08278
2.8	3.06699
2.81	3.09692
2.82	3.10252
2.83	3.09692
2.84	3.11633
2.85	3.11568
2.86	3.09396
2.87	3.10416
2.88	3.11107
2.89	3.0716
2.9	3.116
2.91	3.10087
2.92	3.1239
2.93	3.1489
2.94	3.12752
2.95	3.09824
2.96	3.13772
2.97	3.14528
2.98	3.10646
2.99	3.11008
3	3.12883
3.01	3.12883
3.02	3.07127
3.03	3.11633
3.04	3.09331
3.05	3.11041
3.06	3.09989
3.07	3.1239
3.08	3.09923
3.09	3.10383
3.1	3.10449
3.11	3.07423
3.12	3.08146
3.13	3.0637
3.14	3.06271
3.15	3.09725
3.16	3.08837
3.17	3.07785
3.18	3.08311
3.19	3.08278
3.2	3.09166
3.21	3.05745
3.22	3.10679
3.23	3.14594
3.24	3.11469
3.25	3.09956
3.26	3.0762
3.27	3.09791
3.28	3.09166
3.29	3.1239
3.3	3.11666
3.31	3.09462
3.32	3.07488
3.33	3.06337
3.34	3.07258
3.35	3.08245
3.36	3.09364
3.37	3.09331
3.38	3.09002
3.39	3.10811
3.4	3.08015
3.41	3.10778
3.42	3.09298
3.43	3.08574
3.44	3.11206
3.45	3.10975
3.46	3.0785
3.47	3.04758
3.48	3.04594
3.49	3.06403
3.5	3.08771
3.51	3.07982
3.52	3.10745
3.53	3.07554
3.54	3.07916
3.55	3.04857
3.56	3.06337
3.57	3.07028
3.58	3.08442
3.59	3.06896
3.6	3.08048
3.61	3.06962
3.62	3.05712
3.63	3.09594
3.64	3.08311
3.65	3.08475
3.66	3.09692
3.67	3.07521
3.68	3.05186
3.69	3.05284
3.7	3.08442
3.71	3.08837
3.72	3.07752
3.73	3.10252
3.74	3.09594
3.75	3.08936
3.76	3.066
3.77	3.07719
3.78	3.11469
3.79	3.09528
3.8	3.08212
3.81	3.09528
3.82	3.07653
3.83	3.06831
3.84	3.07488
3.85	3.10252
3.86	3.07949
3.87	3.08574
3.88	3.09133
3.89	3.06074
3.9	3.06732
3.91	3.06271
3.92	3.05515
3.93	3.05383
3.94	3.05613
3.95	3.11206
3.96	3.08311
3.97	3.08739
3.98	3.0887
3.99	3.03409
4	3.04462
4.01	3.03738
4.02	3.05909
4.03	3.07357
4.04	3.06502
4.05	3.07258
4.06	3.04692
4.07	3.05646
4.08	3.03771
4.09	3.03376
4.1	3.07817
4.11	3.0989
4.12	3.07916
4.13	3.04955
4.14	3.05877
4.15	3.09396
4.16	3.06206
4.17	3.04692
4.18	3.07817
4.19	3.0762
4.2	3.08442
4.21	3.09495
4.22	3.06074
4.23	3.08146
4.24	3.07686
4.25	3.07357
4.26	3.05679
4.27	3.09298
4.28	3.10383
4.29	3.08607
4.3	3.05613
4.31	3.06173
4.32	3.08739
4.33	3.041
4.34	3.04067
4.35	3.10449
4.36	3.05581
4.37	3.04791
4.38	3.05811
4.39	3.07982
4.4	3.05712
4.41	3.08541
4.42	3.10186
4.43	3.06008
4.44	3.05317
4.45	3.02949
4.46	3.07423
4.47	3.05646
4.48	3.06765
4.49	3.08048
4.5	3.09396
4.51	3.0864
4.52	3.05613
4.53	3.07554
4.54	3.07785
4.55	3.06962
4.56	3.06896
4.57	3.07719
4.58	3.06831
4.59	3.04791
4.6	3.08179
4.61	3.05219
4.62	3.0512
4.63	3.06206
4.64	3.03179
4.65	3.0716
4.66	3.05219
4.67	3.04627
4.68	3.00284
4.69	3.06271
4.7	3.04528
4.71	3.05219
4.72	3.0364
4.73	3.05449
4.74	3.04067
4.75	3.05317
4.76	3.05909
4.77	3.02291
4.78	3.03146
4.79	3.05877
4.8	3.08113
4.81	3.09495
4.82	3.0762
4.83	3.0614
4.84	3.03804
4.85	3.05581
4.86	3.06995
4.87	3.04462
4.88	3.07587
4.89	3.06962
4.9	3.05515
4.91	3.05087
4.92	3.07225
4.93	3.07785
4.94	3.03903
4.95	3.04857
4.96	3.03673
4.97	3.03804
4.98	3.066
4.99	3.08508
5	3.08113
5.01	3.06896
5.02	3.07291
5.03	3.04462
5.04	3.0614
5.05	3.08508
5.06	3.05975
5.07	3.02521
5.08	3.041
5.09	3.04298
5.1	3.0966
5.11	3.06206
5.12	3.04627
5.13	3.0489
5.14	3.03442
5.15	3.0716
5.16	3.05811
5.17	3.04857
5.18	3.05449
5.19	3.05186
5.2	3.06798
5.21	3.05021
5.22	3.0285
5.23	3.0364
5.24	3.06962
5.25	3.04232
5.26	3.02258
5.27	3.03607
5.28	3.07192
5.29	3.02817
5.3	3.02488
5.31	3.02324
5.32	3.02817
5.33	3.06929
5.34	3.03278
5.35	3.0308
5.36	3.03113
5.37	3.03179
5.38	3.05449
5.39	3.05942
5.4	3.04824
5.41	3.04396
5.42	3.03212
5.43	3.02916
5.44	3.041
5.45	3.05909
5.46	3.05811
5.47	3.04298
5.48	2.99824
5.49	3.03574
5.5	3.04791
5.51	3.02982
5.52	3.02126
5.53	3.05844
5.54	3.04034
5.55	3.01403
5.56	3.02455
5.57	3.04396
5.58	3.0239
5.59	3.01798
5.6	3.00021
5.61	3.04166
5.62	3.07028
5.63	3.08739
5.64	3.04133
5.65	3.04166
5.66	3.05975
5.67	3.05877
5.68	3.05416
5.69	3.04923
5.7	3.03376
5.71	3.0614
5.72	3.01074
5.73	3.06798
5.74	3.0535
5.75	3.05975
5.76	3.03936
5.77	3.07225
5.78	3.0308
5.79	3.03837
5.8	3.04396
5.81	3.0308
5.82	3.02982
5.83	3.03936
5.84	3.03541
5.85	3.03969
5.86	3.03936
5.87	3.01896
5.88	3.06041
5.89	3.03804
5.9	3.02883
5.91	3.0433
5.92	3.03179
5.93	3.06238
5.94	3.02521
5.95	3.02094
5.96	2.99297
5.97	3.00876
5.98	3.03541
5.99	3.02455
6	3.00942
6.01	3.03837
6.02	3.04002
6.03	3.0239
6.04	3.03738
6.05	3.04495
6.06	3.02488
6.07	3.01271
6.08	3.0012
6.09	3.03442
6.1	3.0262
6.11	3.03409
6.12	3.02653
6.13	2.99232
6.14	3.06173
6.15	3.03903
6.16	3.03475
6.17	3.01666
6.18	3.0308
6.19	3.05317
6.2	3.02916
6.21	3.00613
6.22	2.98804
6.23	3.02883
6.24	3.00251
6.25	3.02587
6.26	3.03278
6.27	3.03969
6.28	3.02751
6.29	3.0183
6.3	3.02751
6.31	3.02094
6.32	3.04034
6.33	3.04462
6.34	3.0262
6.35	3.03311
6.36	3.06502
6.37	3.03969
6.38	3.05087
6.39	3.0512
6.4	3.02817
6.41	3.00942
6.42	2.9762
6.43	3.02751
6.44	3.02225
6.45	3.05054
6.46	3.0364
6.47	3.01995
6.48	3.0308
6.49	3.01896
6.5	2.99166
6.51	3.02357
6.52	3.01436
6.53	3.02784
6.54	3.03738
6.55	3.01962
6.56	3.01238
6.57	3.03673
6.58	3.00153
6.59	3.01798
6.6	3.00745
6.61	3.01205
6.62	2.99462
6.63	3.0035
6.64	2.99429
6.65	3.01205
6.66	3.0058
6.67	3.03771
6.68	3.01337
6.69	3.03442
6.7	3.03607
6.71	3.00547
6.72	3.00844
6.73	2.97751
6.74	3.016
6.75	3.02028
6.76	3.02061
6.77	3.03837
6.78	3.04067
6.79	3.03705
6.8	3.03903
6.81	3.01436
6.82	3.01798
6.83	3.02061
6.84	3.04857
6.85	3.01271
6.86	3.04034
6.87	3.04232
6.88	3.04462
6.89	3.04265
6.9	3.01271
6.91	3.02686
6.92	3.0012
6.93	3.01469
6.94	3.01501
6.95	3.00449
6.96	3.00153
6.97	2.99429
6.98	3.00613
6.99	3.01732
7	2.99528
7.01	3.02061
7.02	2.9933
7.03	3.01074
7.04	3.01798
7.05	3.02719
7.06	3.04034
7.07	3.00613
7.08	2.99133
7.09	3.01666
7.1	3.04034
7.11	3.02028
7.12	3.03278
7.13	3.00745
7.14	2.99001
7.15	2.96863
7.16	2.98903
7.17	3.00613
7.18	3.03179
7.19	3.02357
7.2	3.00844
7.21	3.02061
7.22	3.03607
7.23	2.99659
7.24	2.99857
7.25	3.0239
7.26	3.01403
7.27	3.00745
7.28	2.97291
7.29	3.00712
7.3	2.99495
7.31	2.99067
7.32	2.98903
7.33	2.98343
7.34	2.98541
7.35	2.95909
7.36	3.03048
7.37	3.04561
7.38	2.99857
7.39	2.98936
7.4	2.99067
7.41	3.01271
7.42	3.01041
7.43	3.0012
7.44	3.02587
7.45	3.01863
7.46	3.00646
7.47	3.02094
7.48	2.97422
7.49	2.98574
7.5	2.9887
7.51	2.99297
7.52	3.00153
7.53	3.00876
7.54	3.01238
7.55	3.03409
7.56	2.99791
7.57	2.97126
7.58	2.98245
7.59	2.98804
7.6	3.01732
7.61	3.01008
7.62	2.98278
7.63	2.99626
7.64	3.00975
7.65	2.99265
7.66	2.99396
7.67	3.01765
7.68	3.03541
7.69	2.98179
7.7	3.0012
7.71	3.03278
7.72	3.03837
7.73	2.99725
7.74	2.96567
7.75	2.97784
7.76	2.98771
7.77	3.0058
7.78	2.99561
7.79	2.98738
7.8	3.00778
7.81	2.991
7.82	3.0114
7.83	3.00021
7.84	2.9989
7.85	2.98936
7.86	3.00844
7.87	3.00482
7.88	3.01337
7.89	3.01732
7.9	2.99462
7.91	2.99265
7.92	3.01699
7.93	3.00547
7.94	3.01403
7.95	3.02751
7.96	3.01337
7.97	3.00515
7.98	3.00679
7.99	3.01469
8	3.00021
8.01	3.03705
8.02	3.00975
8.03	3.00021
8.04	3.01271
8.05	2.98475
8.06	3.00613
8.07	3.01765
8.08	2.99692
8.09	2.9864
8.1	3.00909
8.11	3.00482
8.12	2.98771
8.13	2.96008
8.14	2.98936
8.15	3.0137
8.16	3.0012
8.17	2.9989
8.18	2.97126
8.19	2.99363
8.2	2.9887
8.21	2.94758
8.22	2.98311
8.23	3.00778
8.24	2.97061
8.25	2.9933
8.26	3.02061
8.27	3.03212
8.28	3.01008
8.29	3.0137
8.3	3.00547
8.31	2.9864
8.32	3.0114
8.33	2.98442
8.34	3.01107
8.35	3.00449
8.36	2.9933
8.37	2.99133
8.38	3.00087
8.39	2.99133
8.4	2.97028
8.41	2.99593
8.42	2.97653
8.43	3.00054
8.44	3.00975
8.45	3.00482
8.46	2.98804
8.47	3.0058
8.48	2.96929
8.49	2.98047
8.5	3.00745
8.51	2.97061
8.52	2.96962
8.53	3.00646
8.54	2.95745
8.55	3.02094
8.56	2.99955
8.57	2.99857
8.58	2.97784
8.59	3.00844
8.6	2.99001
8.61	3.01238
8.62	3.02192
8.63	3.00613
8.64	2.97192
8.65	2.97916
8.66	2.99067
8.67	2.98442
8.68	3.00975
8.69	2.99988
8.7	2.98837
8.71	2.99593
8.72	2.98245
8.73	2.99922
8.74	3.01172
8.75	2.97488
8.76	2.99791
8.77	3.01567
8.78	3.00186
8.79	3.01172
8.8	2.99495
8.81	2.98936
8.82	3.00745
8.83	2.98936
8.84	3.02357
8.85	3.00317
8.86	2.96929
8.87	2.98672
8.88	2.99725
8.89	2.98146
8.9	2.96041
8.91	2.98771
8.92	3.00975
8.93	2.99001
8.94	2.99561
8.95	3.01534
8.96	2.96205
8.97	2.9637
8.98	2.9864
8.99	2.98343
9	3.00153
9.01	3.01798
9.02	3.00186
9.03	3.01074
9.04	2.99067
9.05	2.98245
9.06	2.96304
9.07	2.98936
9.08	2.9989
9.09	2.99692
9.1	2.99593
9.11	3.00251
9.12	2.98968
9.13	3.01896
9.14	3.00876
9.15	3.0262
9.16	2.97126
9.17	2.94824
9.18	2.95876
9.19	2.99001
9.2	2.99725
9.21	2.97192
9.22	2.99528
9.23	3.00186
9.24	2.96962
9.25	2.99166
9.26	2.98014
9.27	2.97258
9.28	2.98804
9.29	2.99363
9.3	3.0114
9.31	2.98541
9.32	2.99232
9.33	2.95909
9.34	2.98672
9.35	3.03771
9.36	2.97817
9.37	2.96567
9.38	2.98146
9.39	2.99396
9.4	2.97817
9.41	2.97587
9.42	2.97159
9.43	3.01107
9.44	3.0012
9.45	2.98047
9.46	2.93771
9.47	2.93639
9.48	2.97126
9.49	2.99659
9.5	2.97587
9.51	2.97061
9.52	2.94922
9.53	2.97817
9.54	3.00054
9.55	3.02192
9.56	3.00646
9.57	3.00909
9.58	3.00613
9.59	2.97061
9.6	2.96435
9.61	2.966
9.62	2.99199
9.63	2.98014
9.64	2.97982
9.65	2.97784
9.66	2.98771
9.67	2.97159
9.68	2.98936
9.69	3.00449
9.7	3.00679
9.71	2.99659
9.72	2.98672
9.73	2.94626
9.74	2.96337
9.75	2.96534
9.76	3.00383
9.77	2.99265
9.78	2.98607
9.79	2.94922
9.8	2.99791
9.81	2.95449
9.82	2.97817
9.83	2.97225
9.84	2.96863
9.85	2.98146
9.86	2.98574
9.87	2.96468
9.88	2.94626
9.89	2.99396
9.9	2.99297
9.91	2.96666
9.92	2.98936
9.93	2.98146
9.94	2.95942
9.95	2.99396
9.96	2.98047
9.97	2.96107
9.98	2.97949
9.99	2.97982
10	2.98771
10.01	2.97817
10.02	2.97028
10.03	2.97061
10.04	2.99396
10.05	3.00515
10.06	3.00844
10.07	2.98672
10.08	2.95745
10.09	2.95876
10.1	2.99955
10.11	2.9933
10.12	2.96633
10.13	2.97488
10.14	2.96468
10.15	2.97225
10.16	2.98541
10.17	2.96238
10.18	2.97883
10.19	2.966
10.2	2.97028
10.21	2.97291
10.22	2.95745
10.23	2.97291
10.24	2.96699
10.25	2.96896
10.26	2.98146
10.27	2.99067
10.28	2.98047
10.29	2.97784
10.3	2.98311
10.31	2.98212
10.32	2.9785
10.33	2.99725
10.34	3.00087
10.35	2.966
10.36	3.00087
10.37	2.94429
10.38	2.9637
10.39	2.97784
10.4	2.97159
10.41	2.96205
10.42	2.97061
10.43	3.01041
10.44	2.97093
10.45	2.93047
10.46	2.99659
10.47	2.97028
10.48	2.99857
10.49	2.99791
10.5	2.97521
10.51	2.98311
10.52	2.93146
10.53	2.98179
10.54	2.95251
10.55	2.95218
10.56	2.97455
10.57	2.97061
10.58	2.97916
10.59	2.95679
10.6	2.95251
10.61	2.93442
10.62	2.97455
10.63	2.97028
10.64	2.97488
10.65	2.98672
10.66	2.95547
10.67	2.96041
10.68	2.96797
10.69	2.95218
10.7	2.95514
10.71	2.98212
10.72	2.96962
10.73	3.00317
10.74	2.94988
10.75	2.97422
10.76	2.99692
10.77	2.98014
10.78	2.97455
10.79	2.97554
10.8	2.96107
10.81	2.96304
10.82	2.98245
10.83	2.97718
10.84	2.95547
10.85	2.9683
10.86	2.96468
10.87	2.96501
10.88	2.98047
10.89	2.98541
10.9	2.96764
10.91	2.95185
10.92	2.98541
10.93	2.99265
10.94	2.96107
10.95	2.98278
10.96	2.95547
10.97	2.99462
10.98	2.97587
10.99	3.00021
11	2.97686
11.01	3.00745
11.02	3.00416
11.03	2.97357
11.04	2.9762
11.05	2.97949
11.06	2.98047
11.07	2.991
11.08	2.97455
11.09	2.94297
11.1	2.97982
11.11	2.99462
11.12	2.95514
11.13	2.94462
11.14	2.96501
11.15	2.98212
11.16	2.9512
11.17	2.96403
11.18	2.96139
11.19	2.95843
11.2	2.96962
11.21	2.97126
11.22	2.97258
11.23	2.96929
11.24	2.93639
11.25	2.96929
11.26	2.9637
11.27	2.95613
11.28	2.98376
11.29	2.94363
11.3	2.94791
11.31	3.01469
11.32	2.97126
11.33	2.94955
11.34	2.95383
11.35	2.98574
11.36	2.99232
11.37	2.95054
11.38	2.98047
11.39	2.99495
11.4	2.97126
11.41	2.98804
11.42	2.98376
11.43	2.96435
11.44	2.97554
11.45	3.01008
11.46	2.96896
11.47	2.96732
11.48	2.98771
11.49	2.95679
11.5	2.94199
11.51	2.93639
11.52	2.96797
11.53	2.95251
11.54	2.97357
11.55	2.95218
11.56	3.00942
11.57	2.96205
11.58	2.94264
11.59	2.96205
11.6	2.95547
11.61	2.95909
11.62	2.98311
11.63	2.97258
11.64	2.9762
11.65	2.96238
11.66	2.95153
11.67	2.95087
11.68	2.95975
11.69	2.94856
11.7	2.95251
11.71	2.94133
11.72	2.93409
11.73	2.95185
11.74	2.9512
11.75	2.98541
11.76	2.96995
11.77	2.97488
11.78	2.9433
11.79	2.96567
11.8	2.92554
11.81	2.94856
11.82	2.95547
11.83	2.96468
11.84	2.97521
11.85	2.96435
11.86	2.95087
11.87	2.96107
11.88	2.94067
11.89	2.96468
11.9	2.96699
11.91	2.9558
11.92	2.96238
11.93	2.96567
11.94	2.9535
11.95	2.95482
11.96	2.96139
11.97	2.94889
11.98	2.97784
11.99	2.97982
12	2.98343
12.01	2.97324
12.02	2.96929
12.03	2.95021
12.04	2.93508
12.05	2.9512
12.06	2.9262
12.07	2.97258
12.08	2.98837
12.09	2.9683
12.1	2.96435
12.11	2.93442
12.12	2.94922
12.13	2.9433
12.14	2.95547
12.15	2.96732
12.16	2.96863
12.17	2.96304
12.18	2.96863
12.19	2.96468
12.2	2.95514
12.21	2.97291
12.22	2.98113
12.23	2.98574
12.24	2.97949
12.25	2.97258
12.26	2.9512
12.27	2.97521
12.28	2.92587
12.29	2.93409
12.3	2.97488
12.31	2.98475
12.32	2.97258
12.33	2.98672
12.34	2.95284
12.35	2.95778
12.36	2.96699
12.37	2.9581
12.38	2.93146
12.39	2.89922
12.4	2.95975
12.41	3.01962
12.42	2.97192
12.43	2.95284
12.44	2.9456
12.45	2.91041
12.46	2.98936
12.47	2.97028
12.48	2.9762
12.49	2.9433
12.5	2.94626
12.51	2.96435
12.52	2.96929
12.53	2.97028
12.54	2.95843
12.55	2.95745
12.56	2.95449
12.57	2.95547
12.58	2.98047
12.59	2.93574
12.6	2.95547
12.61	2.95975
12.62	2.96666
12.63	2.97554
12.64	2.9808
12.65	2.98837
12.66	2.94001
12.67	2.92521
12.68	2.92587
12.69	2.96468
12.7	2.95251
12.71	2.93705
12.72	2.99232
12.73	2.9887
12.74	2.96633
12.75	2.9535
12.76	2.96666
12.77	2.94922
12.78	2.95284
12.79	2.99495
12.8	2.97751
12.81	2.92422
12.82	2.92291
12.83	2.97225
12.84	2.94824
12.85	2.96896
12.86	2.95087
12.87	2.92718
12.88	2.97949
12.89	2.97488
12.9	3.00646
12.91	2.96041
12.92	2.93574
12.93	2.9456
12.94	2.98475
12.95	2.96468
12.96	2.93606
12.97	2.93409
12.98	2.94922
12.99	2.96008
13	2.97324
13.01	2.95087
13.02	2.9683
13.03	2.94199
13.04	2.98113
13.05	2.97422
13.06	2.96304
13.07	2.92817
13.08	2.89955
13.09	2.93903
13.1	2.94429
13.11	2.94133
13.12	2.92356
13.13	2.95613
13.14	2.97521
13.15	2.9558
13.16	2.94199
13.17	2.94297
13.18	2.96238
13.19	2.95646
13.2	2.9785
13.21	2.94791
13.22	2.94067
13.23	2.92751
13.24	2.9581
13.25	2.95843
13.26	2.96271
13.27	2.92126
13.28	2.92718
13.29	2.91698
13.3	2.92981
13.31	2.98936
13.32	2.97554
13.33	2.94791
13.34	2.97061
13.35	2.93343
13.36	2.93935
13.37	2.93968
13.38	2.94363
13.39	2.97817
13.4	2.95449
13.41	2.96699
13.42	2.95679
13.43	2.95909
13.44	2.96666
13.45	2.96468
13.46	2.94297
13.47	2.92225
13.48	2.95317
13.49	2.92126
13.5	2.92521
13.51	2.95054
13.52	2.96403
13.53	2.9535
13.54	2.95021
13.55	2.97324
13.56	2.94133
13.57	2.94133
13.58	2.96074
13.59	2.94001
13.6	2.92126
13.61	2.93606
13.62	2.96633
13.63	2.94396
13.64	2.9308
13.65	2.93935
13.66	2.96271
13.67	2.96107
13.68	2.9308
13.69	2.94725
13.7	2.93508
13.71	2.94429
13.72	2.96699
13.73	2.96205
13.74	2.98508
13.75	2.96008
