"BIO-KINE ASCII FILE"
"_COMMENT"	"MOS-500 Spectrometer"
"_COMMENT"	"Kinetics measurement"
"_COMMENT"	"Y Unit : Volt,  X Unit : s"
"_COMMENT"	"Excitation wavelength : 380 nm"
"_COMMENT"	"Fentes bandwidth =  1 nm"
"_COMMENT"	"HV= 1000V"
"_COMMENT"	"Timebase  1 =  .01 s   5001 pts"
"_SFM"	"SFM-400 /S  Advanced mode"
"_SFM"	"Ratio : S1: 2.5, S2: 0, S3: 0, S4: 1"
"_SFM"	"Content : S1: , S2: , S3: , S4:"
"_SFM"	"Concentration : S1: , S2: , S3: , S4:"
"_SFM"	"Total volume : 209 µl  Flow : 3.5 mL/s"
"_SFM"	"Acquisition start :  10 ms before stop"
"_SFM"	"cuve=FC-15, s1=10 ml , s2=10 ml , s3=10 ml , s4=1.9 ml"
"_UNITX"	"s"
"_UNITY"	"Volt"
"_DELTAX"	0
"_DATA"
1e-300	2.665
0.01	2.65941
0.02	2.67125
0.03	2.70415
0.04	2.7331
0.05	2.76106
0.06	2.79198
0.07	2.77849
0.08	2.78376
0.09	2.84001
0.1	2.81797
0.11	2.83376
0.12	2.83475
0.13	2.8308
0.14	2.84527
0.15	2.83869
0.16	2.80613
0.17	2.85547
0.18	2.85777
0.19	2.87521
0.2	2.84527
0.21	2.83869
0.22	2.86534
0.23	2.866
0.24	2.87948
0.25	2.83211
0.26	2.8479
0.27	2.87718
0.28	2.87258
0.29	2.85711
0.3	2.85218
0.31	2.86633
0.32	2.86106
0.33	2.84593
0.34	2.87422
0.35	2.8535
0.36	2.89692
0.37	2.8558
0.38	2.86698
0.39	2.86863
0.4	2.85448
0.41	2.87915
0.42	2.84264
0.43	2.8729
0.44	2.85481
0.45	2.85415
0.46	2.85415
0.47	2.88212
0.48	2.88343
0.49	2.8535
0.5	2.87159
0.51	2.8604
0.52	2.87192
0.53	2.87192
0.54	2.85547
0.55	2.85218
0.56	2.85481
0.57	2.8683
0.58	2.841
0.59	2.86863
0.6	2.86073
0.61	2.88409
0.62	2.86698
0.63	2.84396
0.64	2.85909
0.65	2.88244
0.66	2.85415
0.67	2.88113
0.68	2.86929
0.69	2.83935
0.7	2.85185
0.71	2.87356
0.72	2.83836
0.73	2.82586
0.74	2.82685
0.75	2.87323
0.76	2.85679
0.77	2.84396
0.78	2.82718
0.79	2.8456
0.8	2.87751
0.81	2.87323
0.82	2.83672
0.83	2.82422
0.84	2.86271
0.85	2.83475
0.86	2.83211
0.87	2.87981
0.88	2.84494
0.89	2.84264
0.9	2.82521
0.91	2.84494
0.92	2.84757
0.93	2.86961
0.94	2.84034
0.95	2.83968
0.96	2.84692
0.97	2.83475
0.98	2.84461
0.99	2.85284
1	2.86172
1.01	2.87554
1.02	2.86369
1.03	2.83146
1.04	2.86172
1.05	2.86369
1.06	2.84231
1.07	2.81698
1.08	2.85086
1.09	2.88014
1.1	2.85185
1.11	2.87685
1.12	2.86698
1.13	2.84988
1.14	2.82553
1.15	2.84889
1.16	2.86863
1.17	2.84593
1.18	2.87981
1.19	2.8535
1.2	2.85481
1.21	2.86369
1.22	2.83343
1.23	2.84955
1.24	2.84988
1.25	2.80777
1.26	2.83211
1.27	2.85415
1.28	2.84001
1.29	2.82784
1.3	2.8433
1.31	2.83376
1.32	2.86139
1.33	2.82751
1.34	2.8285
1.35	2.8535
1.36	2.8206
1.37	2.78902
1.38	2.82323
1.39	2.86369
1.4	2.83047
1.41	2.84955
1.42	2.80448
1.43	2.81567
1.44	2.84757
1.45	2.85876
1.46	2.85152
1.47	2.85744
1.48	2.86665
1.49	2.87258
1.5	2.83178
1.51	2.86896
1.52	2.87389
1.53	2.8354
1.54	2.85547
1.55	2.84231
1.56	2.85218
1.57	2.8706
1.58	2.82455
1.59	2.86961
1.6	2.85317
1.61	2.80448
1.62	2.86008
1.63	2.83343
1.64	2.84988
1.65	2.82784
1.66	2.83047
1.67	2.83178
1.68	2.84955
1.69	2.82817
1.7	2.8433
1.71	2.83573
1.72	2.81698
1.73	2.82784
1.74	2.8229
1.75	2.8433
1.76	2.82455
1.77	2.82422
1.78	2.81139
1.79	2.84725
1.8	2.85251
1.81	2.84988
1.82	2.84363
1.83	2.83836
1.84	2.84429
1.85	2.86139
1.86	2.84889
1.87	2.84264
1.88	2.83738
1.89	2.8206
1.9	2.81896
1.91	2.83836
1.92	2.81764
1.93	2.83639
1.94	2.85382
1.95	2.85382
1.96	2.8433
1.97	2.83146
1.98	2.8331
1.99	2.81303
2	2.83244
2.01	2.8354
2.02	2.82027
2.03	2.81994
2.04	2.83968
2.05	2.84363
2.06	2.86073
2.07	2.80678
2.08	2.82685
2.09	2.80744
2.1	2.83113
2.11	2.82685
2.12	2.82027
2.13	2.82817
2.14	2.82751
2.15	2.8331
2.16	2.85251
2.17	2.81731
2.18	2.81336
2.19	2.81172
2.2	2.79034
2.21	2.77718
2.22	2.83343
2.23	2.8433
2.24	2.80843
2.25	2.80876
2.26	2.84165
2.27	2.83277
2.28	2.84988
2.29	2.8229
2.3	2.80678
2.31	2.83672
2.32	2.83475
2.33	2.83672
2.34	2.84461
2.35	2.79527
2.36	2.8058
2.37	2.83902
2.38	2.8104
2.39	2.80481
2.4	2.80317
2.41	2.82224
2.42	2.81632
2.43	2.81073
2.44	2.83409
2.45	2.80678
2.46	2.8183
2.47	2.79527
2.48	2.80613
2.49	2.83573
2.5	2.8081
2.51	2.7979
2.52	2.82455
2.53	2.84067
2.54	2.8331
2.55	2.82323
2.56	2.83573
2.57	2.83935
2.58	2.8308
2.59	2.79165
2.6	2.84494
2.61	2.82422
2.62	2.83672
2.63	2.82586
2.64	2.82619
2.65	2.85317
2.66	2.85679
2.67	2.84034
2.68	2.85942
2.69	2.80843
2.7	2.81303
2.71	2.86304
2.72	2.7979
2.73	2.79757
2.74	2.82027
2.75	2.82422
2.76	2.81007
2.77	2.78738
2.78	2.82784
2.79	2.81994
2.8	2.8081
2.81	2.81468
2.82	2.84461
2.83	2.8206
2.84	2.80086
2.85	2.80152
2.86	2.79757
2.87	2.81764
2.88	2.84955
2.89	2.83705
2.9	2.83771
2.91	2.84264
2.92	2.82915
2.93	2.84165
2.94	2.841
2.95	2.84297
2.96	2.82356
2.97	2.82093
2.98	2.84363
2.99	2.79395
3	2.78145
3.01	2.81994
3.02	2.80284
3.03	2.81863
3.04	2.8229
3.05	2.77389
3.06	2.80876
3.07	2.84494
3.08	2.80152
3.09	2.81501
3.1	2.78672
3.11	2.78803
3.12	2.82455
3.13	2.85613
3.14	2.82323
3.15	2.80909
3.16	2.80415
3.17	2.78705
3.18	2.81073
3.19	2.83771
3.2	2.81139
3.21	2.79922
3.22	2.82192
3.23	2.82257
3.24	2.82784
3.25	2.81863
3.26	2.8104
3.27	2.77915
3.28	2.78902
3.29	2.82159
3.3	2.84231
3.31	2.80613
3.32	2.82455
3.33	2.79395
3.34	2.79823
3.35	2.81435
3.36	2.8081
3.37	2.79988
3.38	2.81797
3.39	2.8308
3.4	2.79428
3.41	2.81106
3.42	2.81205
3.43	2.8229
3.44	2.79198
3.45	2.82488
3.46	2.79659
3.47	2.82553
3.48	2.82981
3.49	2.82784
3.5	2.82488
3.51	2.81928
3.52	2.82356
3.53	2.80448
3.54	2.80053
3.55	2.82356
3.56	2.83475
3.57	2.83738
3.58	2.8308
3.59	2.84297
3.6	2.81928
3.61	2.84363
3.62	2.81731
3.63	2.78409
3.64	2.81994
3.65	2.82389
3.66	2.82652
3.67	2.78705
3.68	2.77816
3.69	2.79659
3.7	2.82356
3.71	2.81271
3.72	2.8081
3.73	2.83113
3.74	2.77257
3.75	2.7627
3.76	2.79724
3.77	2.84494
3.78	2.84527
3.79	2.82882
3.8	2.80152
3.81	2.80777
3.82	2.80152
3.83	2.82619
3.84	2.8229
3.85	2.80547
3.86	2.81106
3.87	2.80349
3.88	2.81567
3.89	2.79922
3.9	2.80086
3.91	2.8354
3.92	2.81007
3.93	2.8206
3.94	2.79988
3.95	2.79593
3.96	2.80086
3.97	2.80086
3.98	2.83869
3.99	2.80547
4	2.80053
4.01	2.83343
4.02	2.83376
4.03	2.8331
4.04	2.8229
4.05	2.7956
4.06	2.80119
4.07	2.82586
4.08	2.82948
4.09	2.8285
4.1	2.83146
4.11	2.81797
4.12	2.77882
4.13	2.79823
4.14	2.77652
4.15	2.79856
4.16	2.79297
4.17	2.80645
4.18	2.80481
4.19	2.80613
4.2	2.77356
4.21	2.78376
4.22	2.83639
4.23	2.8002
4.24	2.80218
4.25	2.80613
4.26	2.82586
4.27	2.81698
4.28	2.82093
4.29	2.75908
4.3	2.73376
4.31	2.7831
4.32	2.8285
4.33	2.79659
4.34	2.80547
4.35	2.81139
4.36	2.84067
4.37	2.81139
4.38	2.79527
4.39	2.80481
4.4	2.75974
4.41	2.76994
4.42	2.81139
4.43	2.80909
4.44	2.81534
4.45	2.79593
4.46	2.75711
4.47	2.77586
4.48	2.76797
4.49	2.79988
4.5	2.80744
4.51	2.77356
4.52	2.78968
4.53	2.80876
4.54	2.81238
4.55	2.83014
4.56	2.8002
4.57	2.79494
4.58	2.82619
4.59	2.79066
4.6	2.80284
4.61	2.78869
4.62	2.76665
4.63	2.77882
4.64	2.8002
4.65	2.81435
4.66	2.79165
4.67	2.80349
4.68	2.79922
4.69	2.79034
4.7	2.79264
4.71	2.85317
4.72	2.84132
4.73	2.82488
4.74	2.80415
4.75	2.78573
4.76	2.81797
4.77	2.8206
4.78	2.74527
4.79	2.76534
4.8	2.81567
4.81	2.79692
4.82	2.78573
4.83	2.80382
4.84	2.84198
4.85	2.80777
4.86	2.77487
4.87	2.79198
4.88	2.80284
4.89	2.79034
4.9	2.81435
4.91	2.81698
4.92	2.8229
4.93	2.79034
4.94	2.77487
4.95	2.81073
4.96	2.83409
4.97	2.78376
4.98	2.79626
4.99	2.81501
5	2.77882
5.01	2.73737
5.02	2.79692
5.03	2.8229
5.04	2.79659
5.05	2.77356
5.06	2.80053
5.07	2.77816
5.08	2.79626
5.09	2.77685
5.1	2.77389
5.11	2.77816
5.12	2.7979
5.13	2.79692
5.14	2.80415
5.15	2.80317
5.16	2.77553
5.17	2.79066
5.18	2.80547
5.19	2.79363
5.2	2.81665
5.21	2.80185
5.22	2.8058
5.23	2.78836
5.24	2.79955
5.25	2.81534
5.26	2.78869
5.27	2.81303
5.28	2.81764
5.29	2.76764
5.3	2.77553
5.31	2.82027
5.32	2.80218
5.33	2.77882
5.34	2.79626
5.35	2.80086
5.36	2.76797
5.37	2.77751
5.38	2.77882
5.39	2.81994
5.4	2.82159
5.41	2.81369
5.42	2.80909
5.43	2.78639
5.44	2.83376
5.45	2.81863
5.46	2.78113
5.47	2.76797
5.48	2.78113
5.49	2.79132
5.5	2.7581
5.51	2.78507
5.52	2.79034
5.53	2.79626
5.54	2.77619
5.55	2.78573
5.56	2.79527
5.57	2.78014
5.58	2.78573
5.59	2.7877
5.6	2.80909
5.61	2.80218
5.62	2.80415
5.63	2.79066
5.64	2.75974
5.65	2.76534
5.66	2.79823
5.67	2.79001
5.68	2.78836
5.69	2.75941
5.7	2.7808
5.71	2.77981
5.72	2.77159
5.73	2.77257
5.74	2.77389
5.75	2.78968
5.76	2.79889
5.77	2.79264
5.78	2.79001
5.79	2.81534
5.8	2.79395
5.81	2.7877
5.82	2.78968
5.83	2.79494
5.84	2.81303
5.85	2.79988
5.86	2.78738
5.87	2.76534
5.88	2.76534
5.89	2.79757
5.9	2.80218
5.91	2.78573
5.92	2.8002
5.93	2.79955
5.94	2.81271
5.95	2.75218
5.96	2.76632
5.97	2.78803
5.98	2.77455
5.99	2.7854
6	2.79988
6.01	2.79494
6.02	2.76172
6.03	2.78507
6.04	2.76698
6.05	2.76369
6.06	2.78639
6.07	2.77191
6.08	2.7854
6.09	2.78869
6.1	2.78113
6.11	2.80514
6.12	2.7831
6.13	2.77751
6.14	2.77389
6.15	2.75185
6.16	2.77487
6.17	2.77159
6.18	2.75119
6.19	2.75908
6.2	2.77915
6.21	2.79856
6.22	2.78606
6.23	2.78935
6.24	2.78014
6.25	2.79395
6.26	2.78145
6.27	2.82422
6.28	2.76632
6.29	2.78145
6.3	2.78935
6.31	2.74395
6.32	2.77093
6.33	2.77718
6.34	2.7331
6.35	2.78705
6.36	2.78738
6.37	2.80218
6.38	2.78935
6.39	2.77718
6.4	2.77422
6.41	2.76731
6.42	2.78935
6.43	2.78441
6.44	2.7456
6.45	2.7752
6.46	2.80415
6.47	2.82422
6.48	2.79988
6.49	2.78935
6.5	2.78968
6.51	2.78902
6.52	2.79955
6.53	2.76468
6.54	2.75645
6.55	2.76731
6.56	2.78869
6.57	2.77191
6.58	2.78409
6.59	2.76632
6.6	2.75119
6.61	2.77981
6.62	2.80448
6.63	2.75218
6.64	2.77816
6.65	2.77356
6.66	2.7479
6.67	2.78606
6.68	2.77751
6.69	2.77422
6.7	2.7558
6.71	2.7456
6.72	2.73672
6.73	2.76665
6.74	2.76106
6.75	2.77323
6.76	2.79527
6.77	2.7581
6.78	2.76106
6.79	2.75612
6.8	2.75185
6.81	2.78343
6.82	2.80119
6.83	2.79988
6.84	2.81238
6.85	2.77784
6.86	2.76665
6.87	2.78113
6.88	2.76534
6.89	2.82323
6.9	2.76764
6.91	2.76369
6.92	2.79066
6.93	2.81238
6.94	2.76928
6.95	2.73672
6.96	2.76435
6.97	2.77784
6.98	2.80251
6.99	2.7683
7	2.76237
7.01	2.77224
7.02	2.81468
7.03	2.77882
7.04	2.7729
7.05	2.79988
7.06	2.75218
7.07	2.77849
7.08	2.7808
7.09	2.78507
7.1	2.8002
7.11	2.78343
7.12	2.76402
7.13	2.76402
7.14	2.76534
7.15	2.75645
7.16	2.75316
7.17	2.80415
7.18	2.7808
7.19	2.77784
7.2	2.78639
7.21	2.78705
7.22	2.79099
7.23	2.75481
7.24	2.78145
7.25	2.76402
7.26	2.76632
7.27	2.77882
7.28	2.82882
7.29	2.79922
7.3	2.79099
7.31	2.76599
7.32	2.77027
7.33	2.77191
7.34	2.75251
7.35	2.74494
7.36	2.72323
7.37	2.77751
7.38	2.78047
7.39	2.76534
7.4	2.74691
7.41	2.7831
7.42	2.77948
7.43	2.74362
7.44	2.75283
7.45	2.70711
7.46	2.77915
7.47	2.78836
7.48	2.78113
7.49	2.76172
7.5	2.7683
7.51	2.77224
7.52	2.77882
7.53	2.78244
7.54	2.77224
7.55	2.76566
7.56	2.7752
7.57	2.77948
7.58	2.76895
7.59	2.76468
7.6	2.76402
7.61	2.79066
7.62	2.7877
7.63	2.79231
7.64	2.7706
7.65	2.77159
7.66	2.74889
7.67	2.74889
7.68	2.75547
7.69	2.77948
7.7	2.75843
7.71	2.75382
7.72	2.7752
7.73	2.77323
7.74	2.78738
7.75	2.76862
7.76	2.76501
7.77	2.78244
7.78	2.78968
7.79	2.77685
7.8	2.78409
7.81	2.76402
7.82	2.74132
7.83	2.75119
7.84	2.75876
7.85	2.75843
7.86	2.75382
7.87	2.78507
7.88	2.74264
7.89	2.76007
7.9	2.74691
7.91	2.73507
7.92	2.75053
7.93	2.75514
7.94	2.73408
7.95	2.7604
7.96	2.7854
7.97	2.77389
7.98	2.7808
7.99	2.78047
8	2.78639
8.01	2.79198
8.02	2.75941
8.03	2.76764
8.04	2.77948
8.05	2.77191
8.06	2.74001
8.07	2.7683
8.08	2.77487
8.09	2.78803
8.1	2.76731
8.11	2.78277
8.12	2.79001
8.13	2.77751
8.14	2.75843
8.15	2.7502
8.16	2.75876
8.17	2.76172
8.18	2.77882
8.19	2.76928
8.2	2.76566
8.21	2.77159
8.22	2.77718
8.23	2.75711
8.24	2.76698
8.25	2.78507
8.26	2.77586
8.27	2.75152
8.28	2.73014
8.29	2.76139
8.3	2.80053
8.31	2.79659
8.32	2.76336
8.33	2.76369
8.34	2.76566
8.35	2.78145
8.36	2.78211
8.37	2.79034
8.38	2.75119
8.39	2.79066
8.4	2.78113
8.41	2.7877
8.42	2.77849
8.43	2.75941
8.44	2.77784
8.45	2.75547
8.46	2.78803
8.47	2.7706
8.48	2.7933
8.49	2.74757
8.5	2.78244
8.51	2.77915
8.52	2.7831
8.53	2.78277
8.54	2.79593
8.55	2.74165
8.56	2.72586
8.57	2.74856
8.58	2.78409
8.59	2.7979
8.6	2.75218
8.61	2.72915
8.62	2.76797
8.63	2.7683
8.64	2.77948
8.65	2.75382
8.66	2.7502
8.67	2.72783
8.68	2.75843
8.69	2.74955
8.7	2.73573
8.71	2.76369
8.72	2.76237
8.73	2.76237
8.74	2.73737
8.75	2.76764
8.76	2.79494
8.77	2.79922
8.78	2.77586
8.79	2.75086
8.8	2.75053
8.81	2.78145
8.82	2.7706
8.83	2.76501
8.84	2.77257
8.85	2.75876
8.86	2.76566
8.87	2.77849
8.88	2.76928
8.89	2.76797
8.9	2.79231
8.91	2.80645
8.92	2.76566
8.93	2.74626
8.94	2.7979
8.95	2.74527
8.96	2.74593
8.97	2.76632
8.98	2.78672
8.99	2.76336
9	2.76665
9.01	2.79001
9.02	2.78672
9.03	2.7752
9.04	2.73935
9.05	2.73968
9.06	2.74198
9.07	2.74987
9.08	2.75481
9.09	2.74165
9.1	2.74264
9.11	2.77422
9.12	2.79034
9.13	2.81106
9.14	2.77323
9.15	2.78047
9.16	2.76172
9.17	2.76994
9.18	2.74231
9.19	2.73079
9.2	2.77751
9.21	2.75119
9.22	2.76764
9.23	2.74395
9.24	2.72783
9.25	2.74691
9.26	2.76862
9.27	2.76895
9.28	2.7581
9.29	2.76862
9.3	2.76369
9.31	2.78803
9.32	2.77553
9.33	2.75678
9.34	2.76895
9.35	2.79593
9.36	2.76534
9.37	2.75514
9.38	2.7706
9.39	2.77356
9.4	2.76435
9.41	2.7502
9.42	2.77586
9.43	2.74823
9.44	2.7831
9.45	2.77191
9.46	2.73803
9.47	2.75283
9.48	2.75711
9.49	2.78738
9.5	2.78376
9.51	2.76632
9.52	2.77948
9.53	2.78343
9.54	2.77586
9.55	2.78474
9.56	2.75711
9.57	2.74066
9.58	2.70744
9.59	2.76237
9.6	2.7581
9.61	2.78738
9.62	2.80613
9.63	2.75218
9.64	2.71566
9.65	2.74132
9.66	2.73803
9.67	2.77586
9.68	2.78441
9.69	2.78409
9.7	2.77849
9.71	2.79001
9.72	2.71402
9.73	2.74658
9.74	2.7729
9.75	2.79428
9.76	2.75974
9.77	2.77356
9.78	2.74724
9.79	2.77586
9.8	2.78441
9.81	2.76665
9.82	2.78113
9.83	2.7956
9.84	2.75974
9.85	2.77422
9.86	2.77027
9.87	2.74362
9.88	2.73704
9.89	2.73737
9.9	2.72882
9.91	2.75876
9.92	2.78376
9.93	2.7502
9.94	2.73014
9.95	2.7752
9.96	2.74264
9.97	2.75514
9.98	2.74494
9.99	2.73376
10	2.72652
10.01	2.73178
10.02	2.74461
10.03	2.73968
10.04	2.7729
10.05	2.76862
10.06	2.7729
10.07	2.79363
10.08	2.79132
10.09	2.76632
10.1	2.7683
10.11	2.7831
10.12	2.78441
10.13	2.75974
10.14	2.76599
10.15	2.77751
10.16	2.75974
10.17	2.77718
10.18	2.75514
10.19	2.77126
10.2	2.76895
10.21	2.78343
10.22	2.7581
10.23	2.77027
10.24	2.76862
10.25	2.75283
10.26	2.75908
10.27	2.75349
10.28	2.77586
10.29	2.74527
10.3	2.73836
10.31	2.73507
10.32	2.76468
10.33	2.72882
10.34	2.75053
10.35	2.7729
10.36	2.7683
10.37	2.7502
10.38	2.73343
10.39	2.77093
10.4	2.75547
10.41	2.73639
10.42	2.7877
10.43	2.77422
10.44	2.76764
10.45	2.76336
10.46	2.74264
10.47	2.77784
10.48	2.76534
10.49	2.78178
10.5	2.75777
10.51	2.76698
10.52	2.74264
10.53	2.74494
10.54	2.73014
10.55	2.76797
10.56	2.74461
10.57	2.7331
10.58	2.75251
10.59	2.75777
10.6	2.74066
10.61	2.7275
10.62	2.74231
10.63	2.72125
10.64	2.76698
10.65	2.7729
10.66	2.77685
10.67	2.74593
10.68	2.76205
10.69	2.74066
10.7	2.76369
10.71	2.76237
10.72	2.76764
10.73	2.77981
10.74	2.77093
10.75	2.78014
10.76	2.80284
10.77	2.74494
10.78	2.74297
10.79	2.75448
10.8	2.7729
10.81	2.7877
10.82	2.75547
10.83	2.75053
10.84	2.73079
10.85	2.75382
10.86	2.75876
10.87	2.75382
10.88	2.73408
10.89	2.73079
10.9	2.75612
10.91	2.76501
10.92	2.75547
10.93	2.72783
10.94	2.75777
10.95	2.71204
10.96	2.70612
10.97	2.73968
10.98	2.75941
10.99	2.73836
11	2.73836
11.01	2.76895
11.02	2.79922
11.03	2.74132
11.04	2.73507
11.05	2.73277
11.06	2.76764
11.07	2.75283
11.08	2.73376
11.09	2.74494
11.1	2.76237
11.11	2.7729
11.12	2.7502
11.13	2.75283
11.14	2.76435
11.15	2.72619
11.16	2.74987
11.17	2.7502
11.18	2.7502
11.19	2.79264
11.2	2.79231
11.21	2.7729
11.22	2.75382
11.23	2.73737
11.24	2.79395
11.25	2.7752
11.26	2.75744
11.27	2.73902
11.28	2.74494
11.29	2.78178
11.3	2.74461
11.31	2.78178
11.32	2.76566
11.33	2.75514
11.34	2.7752
11.35	2.76139
11.36	2.74198
11.37	2.72718
11.38	2.73474
11.39	2.72816
11.4	2.72093
11.41	2.75283
11.42	2.74593
11.43	2.73474
11.44	2.72257
11.45	2.76566
11.46	2.76797
11.47	2.77027
11.48	2.75843
11.49	2.71106
11.5	2.72981
11.51	2.76534
11.52	2.75283
11.53	2.75119
11.54	2.74889
11.55	2.74329
11.56	2.74066
11.57	2.71533
11.58	2.74329
11.59	2.78211
11.6	2.75448
11.61	2.73014
11.62	2.75185
11.63	2.7627
11.64	2.76468
11.65	2.78211
11.66	2.74757
11.67	2.74001
11.68	2.76402
11.69	2.75218
11.7	2.71007
11.71	2.75678
11.72	2.73606
11.73	2.75382
11.74	2.74494
11.75	2.74428
11.76	2.75053
11.77	2.75612
11.78	2.74955
11.79	2.75744
11.8	2.715
11.81	2.7456
11.82	2.74132
11.83	2.71533
11.84	2.73244
11.85	2.73573
11.86	2.74395
11.87	2.76961
11.88	2.79757
11.89	2.76073
11.9	2.76468
11.91	2.71797
11.92	2.75086
11.93	2.76435
11.94	2.75185
11.95	2.74658
11.96	2.73803
11.97	2.75316
11.98	2.75908
11.99	2.73935
12	2.74889
12.01	2.7627
12.02	2.75119
12.03	2.76073
12.04	2.69856
12.05	2.72816
12.06	2.74757
12.07	2.74461
12.08	2.73639
12.09	2.73869
12.1	2.78211
12.11	2.79922
12.12	2.78507
12.13	2.76468
12.14	2.71731
12.15	2.73704
12.16	2.75283
12.17	2.73047
12.18	2.74066
12.19	2.75086
12.2	2.77619
12.21	2.77224
12.22	2.73639
12.23	2.72816
12.24	2.74231
12.25	2.73408
12.26	2.74527
12.27	2.715
12.28	2.72882
12.29	2.75086
12.3	2.74856
12.31	2.76632
12.32	2.76106
12.33	2.75152
12.34	2.75974
12.35	2.76435
12.36	2.76468
12.37	2.76468
12.38	2.80218
12.39	2.76073
12.4	2.7581
12.41	2.76895
12.42	2.74033
12.43	2.73737
12.44	2.76731
12.45	2.76007
12.46	2.74231
12.47	2.77586
12.48	2.7752
12.49	2.75185
12.5	2.75514
12.51	2.74099
12.52	2.76665
12.53	2.76468
12.54	2.7558
12.55	2.74428
12.56	2.75185
12.57	2.7479
12.58	2.74297
12.59	2.7377
12.6	2.76534
12.61	2.74626
12.62	2.7558
12.63	2.75678
12.64	2.76698
12.65	2.77619
12.66	2.72586
12.67	2.71829
12.68	2.75941
12.69	2.75547
12.7	2.73935
12.71	2.75777
12.72	2.7627
12.73	2.74823
12.74	2.74987
12.75	2.73902
12.76	2.71533
12.77	2.7558
12.78	2.75744
12.79	2.72553
12.8	2.74264
12.81	2.73474
12.82	2.71961
12.83	2.76007
12.84	2.73014
12.85	2.73902
12.86	2.73573
12.87	2.78145
12.88	2.75645
12.89	2.76501
12.9	2.74362
12.91	2.73869
12.92	2.75316
12.93	2.72224
12.94	2.7331
12.95	2.76106
12.96	2.76369
12.97	2.73145
12.98	2.72718
12.99	2.73869
13	2.74955
13.01	2.72356
13.02	2.72619
13.03	2.74297
13.04	2.75481
13.05	2.76369
13.06	2.7581
13.07	2.75843
13.08	2.74658
13.09	2.76731
13.1	2.75349
13.11	2.75744
13.12	2.75941
13.13	2.76402
13.14	2.74165
13.15	2.73014
13.16	2.74297
13.17	2.73376
13.18	2.74922
13.19	2.73277
13.2	2.74889
13.21	2.75744
13.22	2.7604
13.23	2.74658
13.24	2.75514
13.25	2.71336
13.26	2.73606
13.27	2.71237
13.28	2.72125
13.29	2.74757
13.3	2.75185
13.31	2.78672
13.32	2.76961
13.33	2.75448
13.34	2.77652
13.35	2.79231
13.36	2.76764
13.37	2.72422
13.38	2.76468
13.39	2.7502
13.4	2.71303
13.41	2.74889
13.42	2.74955
13.43	2.75218
13.44	2.74099
13.45	2.73507
13.46	2.75448
13.47	2.75415
13.48	2.79264
13.49	2.75349
13.5	2.75547
13.51	2.76007
13.52	2.74658
13.53	2.73672
13.54	2.75283
13.55	2.77191
13.56	2.73178
13.57	2.75185
13.58	2.7354
13.59	2.76106
13.6	2.75218
13.61	2.76797
13.62	2.75547
13.63	2.75251
13.64	2.74987
13.65	2.76435
13.66	2.73178
13.67	2.73737
13.68	2.72783
13.69	2.76237
13.7	2.76698
13.71	2.75547
13.72	2.75316
13.73	2.72191
13.74	2.73737
13.75	2.70777
