"BIO-KINE ASCII FILE"
"_COMMENT"	"MOS-500 Spectrometer"
"_COMMENT"	"Kinetics measurement"
"_COMMENT"	"Y Unit : Volt,  X Unit : s"
"_COMMENT"	"Excitation wavelength : 380 nm"
"_COMMENT"	"Fentes bandwidth =  1 nm"
"_COMMENT"	"HV= 1000V"
"_COMMENT"	"Timebase  1 =  .01 s   5001 pts"
"_SFM"	"SFM-400 /S  Advanced mode"
"_SFM"	"Ratio : S1: 2.5, S2: 0, S3: 0, S4: 1"
"_SFM"	"Content : S1: , S2: , S3: , S4:"
"_SFM"	"Concentration : S1: , S2: , S3: , S4:"
"_SFM"	"Total volume : 209 µl  Flow : 3.5 mL/s"
"_SFM"	"Acquisition start :  10 ms before stop"
"_SFM"	"cuve=FC-15, s1=10 ml , s2=10 ml , s3=10 ml , s4=1.9 ml"
"_UNITX"	"s"
"_UNITY"	"Volt"
"_DELTAX"	0
"_DATA"
1e-300	8.44083
0.01	8.59609
0.02	8.62504
0.03	8.76682
0.04	8.96485
0.05	8.99216
0.06	8.99972
0.07	8.99347
0.08	9.04874
0.09	9.03492
0.1	9.08032
0.11	9.01485
0.12	9.05071
0.13	9.01156
0.14	8.99841
0.15	9.0688
0.16	9.09018
0.17	9.0938
0.18	9.05466
0.19	9.04841
0.2	9.03821
0.21	9.01617
0.22	9.02406
0.23	9.02012
0.24	9.01189
0.25	9.06189
0.26	9.13393
0.27	9.08525
0.28	9.00301
0.29	9.04939
0.3	9.04643
0.31	8.98097
0.32	9.03525
0.33	8.99841
0.34	9.00334
0.35	9.03295
0.36	8.96781
0.37	9.03459
0.38	9.01189
0.39	9.03196
0.4	9.03887
0.41	9.00334
0.42	9.04874
0.43	8.99413
0.44	8.98327
0.45	8.90367
0.46	8.94742
0.47	8.99446
0.48	8.98919
0.49	8.97176
0.5	8.9415
0.51	8.91123
0.52	8.95071
0.53	8.95465
0.54	8.94873
0.55	8.91419
0.56	8.93952
0.57	8.97242
0.58	8.94051
0.59	8.95663
0.6	8.95433
0.61	8.93623
0.62	8.98558
0.63	8.92176
0.64	8.94511
0.65	8.95104
0.66	8.94544
0.67	8.93393
0.68	8.88426
0.69	8.91748
0.7	8.86617
0.71	8.91452
0.72	8.87077
0.73	8.95663
0.74	8.94939
0.75	8.90498
0.76	8.8563
0.77	8.83393
0.78	8.87702
0.79	8.87143
0.8	8.82801
0.81	8.84544
0.82	8.83064
0.83	8.82209
0.84	8.8688
0.85	8.86781
0.86	8.83064
0.87	8.83755
0.88	8.86321
0.89	8.83623
0.9	8.82899
0.91	8.83031
0.92	8.81518
0.93	8.82538
0.94	8.79182
0.95	8.7484
0.96	8.75366
0.97	8.74445
0.98	8.76649
0.99	8.74873
1	8.78064
1.01	8.76156
1.02	8.77439
1.03	8.72669
1.04	8.81978
1.05	8.79906
1.06	8.66616
1.07	8.75103
1.08	8.77274
1.09	8.78327
1.1	8.77669
1.11	8.76123
1.12	8.79215
1.13	8.77373
1.14	8.74314
1.15	8.68425
1.16	8.67899
1.17	8.65695
1.18	8.68327
1.19	8.71879
1.2	8.71452
1.21	8.7609
1.22	8.68557
1.23	8.66583
1.24	8.60136
1.25	8.69346
1.26	8.63721
1.27	8.67471
1.28	8.68425
1.29	8.67833
1.3	8.64083
1.31	8.63294
1.32	8.66945
1.33	8.64675
1.34	8.69577
1.35	8.65925
1.36	8.66485
1.37	8.63195
1.38	8.64906
1.39	8.63327
1.4	8.6507
1.41	8.62406
1.42	8.64116
1.43	8.63886
1.44	8.62438
1.45	8.62767
1.46	8.58984
1.47	8.58491
1.48	8.64248
1.49	8.61123
1.5	8.6461
1.51	8.63754
1.52	8.63491
1.53	8.59511
1.54	8.60563
1.55	8.62767
1.56	8.58853
1.57	8.63327
1.58	8.65004
1.59	8.59609
1.6	8.55465
1.61	8.55761
1.62	8.55662
1.63	8.63919
1.64	8.63031
1.65	8.55629
1.66	8.57603
1.67	8.54872
1.68	8.57833
1.69	8.5734
1.7	8.5609
1.71	8.50991
1.72	8.50629
1.73	8.51813
1.74	8.46024
1.75	8.49247
1.76	8.48491
1.77	8.53096
1.78	8.51287
1.79	8.49214
1.8	8.50826
1.81	8.51122
1.82	8.47307
1.83	8.49083
1.84	8.46024
1.85	8.50168
1.86	8.44478
1.87	8.47142
1.88	8.47866
1.89	8.48359
1.9	8.5178
1.91	8.48886
1.92	8.4257
1.93	8.4553
1.94	8.3928
1.95	8.38721
1.96	8.39116
1.97	8.45826
1.98	8.46517
1.99	8.40925
2	8.43688
2.01	8.40695
2.02	8.44741
2.03	8.44938
2.04	8.40135
2.05	8.44412
2.06	8.46714
2.07	8.44149
2.08	8.47964
2.09	8.48425
2.1	8.43326
2.11	8.40464
2.12	8.36221
2.13	8.37142
2.14	8.41089
2.15	8.36747
2.16	8.34675
2.17	8.4257
2.18	8.45004
2.19	8.39642
2.2	8.40793
2.21	8.3928
2.22	8.43392
2.23	8.41188
2.24	8.37142
2.25	8.42274
2.26	8.41056
2.27	8.38293
2.28	8.40991
2.29	8.37306
2.3	8.36517
2.31	8.35826
2.32	8.34642
2.33	8.31155
2.34	8.36912
2.35	8.3701
2.36	8.33293
2.37	8.32142
2.38	8.25661
2.39	8.25003
2.4	8.22701
2.41	8.27767
2.42	8.28096
2.43	8.3053
2.44	8.28753
2.45	8.29214
2.46	8.29181
2.47	8.29313
2.48	8.29905
2.49	8.30365
2.5	8.29773
2.51	8.21944
2.52	8.2247
2.53	8.29115
2.54	8.28227
2.55	8.25957
2.56	8.26846
2.57	8.28128
2.58	8.24872
2.59	8.26319
2.6	8.25365
2.61	8.22865
2.62	8.24477
2.63	8.23161
2.64	8.23392
2.65	8.26484
2.66	8.26221
2.67	8.20332
2.68	8.22865
2.69	8.20168
2.7	8.18128
2.71	8.18523
2.72	8.21582
2.73	8.20563
2.74	8.18885
2.75	8.13951
2.76	8.15727
2.77	8.17865
2.78	8.16878
2.79	8.13687
2.8	8.15332
2.81	8.23424
2.82	8.19872
2.83	8.15102
2.84	8.15102
2.85	8.19773
2.86	8.1201
2.87	8.11779
2.88	8.16319
2.89	8.15497
2.9	8.14247
2.91	8.13391
2.92	8.15135
2.93	8.17108
2.94	8.12075
2.95	8.12799
2.96	8.14937
2.97	8.13128
2.98	8.13852
2.99	8.12964
3	8.11747
3.01	8.13194
3.02	8.13753
3.03	8.10529
3.04	8.11648
3.05	8.07964
3.06	8.07832
3.07	8.12931
3.08	8.13885
3.09	8.09641
3.1	8.02766
3.11	8.08128
3.12	8.07141
3.13	8.08227
3.14	8.08687
3.15	8.06023
3.16	8.0395
3.17	8.12733
3.18	8.08227
3.19	8.10003
3.2	8.10431
3.21	8.06253
3.22	8.14082
3.23	8.09641
3.24	7.97404
3.25	8.01582
3.26	7.99049
3.27	7.99641
3.28	8.02602
3.29	7.98095
3.3	8.0043
3.31	8.01417
3.32	8.01417
3.33	8.08687
3.34	8.06944
3.35	8.02996
3.36	7.9997
3.37	8.02108
3.38	8.01384
3.39	8.00003
3.4	7.99937
3.41	8.01582
3.42	8.01253
3.43	8.02667
3.44	8.0099
3.45	8.01746
3.46	8.01319
3.47	8.03325
3.48	7.9872
3.49	8.02766
3.5	7.93786
3.51	7.95957
3.52	7.95233
3.53	7.99213
3.54	7.98292
3.55	7.92503
3.56	7.95365
3.57	7.91713
3.58	7.90068
3.59	7.92042
3.6	7.9395
3.61	7.96384
3.62	7.92437
3.63	7.93621
3.64	7.96022
3.65	7.95266
3.66	7.91746
3.67	7.90332
3.68	7.91647
3.69	7.89937
3.7	7.92437
3.71	7.94147
3.72	7.95924
3.73	7.92404
3.74	7.87272
3.75	7.92404
3.76	7.927
3.77	7.89805
3.78	7.87667
3.79	7.87667
3.8	7.89213
3.81	7.90595
3.82	7.90759
3.83	7.88128
3.84	7.89641
3.85	7.85035
3.86	7.87305
3.87	7.85627
3.88	7.83818
3.89	7.87009
3.9	7.86285
3.91	7.85562
3.92	7.89509
3.93	7.89378
3.94	7.80364
3.95	7.85331
3.96	7.87634
3.97	7.86384
3.98	7.85792
3.99	7.86351
4	7.78226
4.01	7.81055
4.02	7.83785
4.03	7.83226
4.04	7.87404
4.05	7.82338
4.06	7.81713
4.07	7.77634
4.08	7.82568
4.09	7.84871
4.1	7.84575
4.11	7.84016
4.12	7.84213
4.13	7.82864
4.14	7.79081
4.15	7.78292
4.16	7.79838
4.17	7.79246
4.18	7.79542
4.19	7.75002
4.2	7.80594
4.21	7.77042
4.22	7.78654
4.23	7.82897
4.24	7.78522
4.25	7.75627
4.26	7.78029
4.27	7.8191
4.28	7.77798
4.29	7.71482
4.3	7.79805
4.31	7.80035
4.32	7.81614
4.33	7.75035
4.34	7.76614
4.35	7.76088
4.36	7.78029
4.37	7.69673
4.38	7.752
4.39	7.77272
4.4	7.76154
4.41	7.78522
4.42	7.78621
4.43	7.74739
4.44	7.72403
4.45	7.72469
4.46	7.75035
4.47	7.73456
4.48	7.77798
4.49	7.73456
4.5	7.77206
4.51	7.72535
4.52	7.68489
4.53	7.69936
4.54	7.74081
4.55	7.71482
4.56	7.70792
4.57	7.66713
4.58	7.70627
4.59	7.73884
4.6	7.68884
4.61	7.70561
4.62	7.73588
4.63	7.70923
4.64	7.68193
4.65	7.68982
4.66	7.71022
4.67	7.71515
4.68	7.72436
4.69	7.68555
4.7	7.65824
4.71	7.63851
4.72	7.66778
4.73	7.66219
4.74	7.56647
4.75	7.60857
4.76	7.66614
4.77	7.65463
4.78	7.63456
4.79	7.65495
4.8	7.66548
4.81	7.63259
4.82	7.63324
4.83	7.68555
4.84	7.62074
4.85	7.63653
4.86	7.66811
4.87	7.63456
4.88	7.64574
4.89	7.63423
4.9	7.60528
4.91	7.62008
4.92	7.66285
4.93	7.61449
4.94	7.63686
4.95	7.61219
4.96	7.61482
4.97	7.64969
4.98	7.62436
4.99	7.59936
5	7.61449
5.01	7.63127
5.02	7.59804
5.03	7.61186
5.04	7.57337
5.05	7.58489
5.06	7.62107
5.07	7.68094
5.08	7.62436
5.09	7.56416
5.1	7.61186
5.11	7.6237
5.12	7.60594
5.13	7.59541
5.14	7.59015
5.15	7.61778
5.16	7.60166
5.17	7.58357
5.18	7.57337
5.19	7.59772
5.2	7.58258
5.21	7.59212
5.22	7.57469
5.23	7.55857
5.24	7.576
5.25	7.51449
5.26	7.5566
5.27	7.56877
5.28	7.55429
5.29	7.53653
5.3	7.49442
5.31	7.49179
5.32	7.51383
5.33	7.49738
5.34	7.55956
5.35	7.55989
5.36	7.46416
5.37	7.49771
5.38	7.5612
5.39	7.5237
5.4	7.52403
5.41	7.51186
5.42	7.50923
5.43	7.53587
5.44	7.53324
5.45	7.50594
5.46	7.50363
5.47	7.53916
5.48	7.49903
5.49	7.48587
5.5	7.48061
5.51	7.46416
5.52	7.50758
5.53	7.52567
5.54	7.51482
5.55	7.54245
5.56	7.52765
5.57	7.56186
5.58	7.51416
5.59	7.47863
5.6	7.50331
5.61	7.4737
5.62	7.43225
5.63	7.4635
5.64	7.47567
5.65	7.46515
5.66	7.50824
5.67	7.50298
5.68	7.50692
5.69	7.46613
5.7	7.50363
5.71	7.52732
5.72	7.48949
5.73	7.48653
5.74	7.46317
5.75	7.48883
5.76	7.48423
5.77	7.48127
5.78	7.5191
5.79	7.5214
5.8	7.48784
5.81	7.47699
5.82	7.43094
5.83	7.41844
5.84	7.48686
5.85	7.4237
5.86	7.40758
5.87	7.43192
5.88	7.42008
5.89	7.44804
5.9	7.45067
5.91	7.42469
5.92	7.41646
5.93	7.42436
5.94	7.4362
5.95	7.4033
5.96	7.44969
5.97	7.43324
5.98	7.42469
5.99	7.4237
6	7.4487
6.01	7.42469
6.02	7.43225
6.03	7.40626
6.04	7.41811
6.05	7.40988
6.06	7.41712
6.07	7.39278
6.08	7.3556
6.09	7.4339
6.1	7.39607
6.11	7.37732
6.12	7.36317
6.13	7.35264
6.14	7.39212
6.15	7.35593
6.16	7.36679
6.17	7.40232
6.18	7.39508
6.19	7.40791
6.2	7.41811
6.21	7.31481
6.22	7.39212
6.23	7.39804
6.24	7.37074
6.25	7.36547
6.26	7.37633
6.27	7.34738
6.28	7.29541
6.29	7.29968
6.3	7.35922
6.31	7.34278
6.32	7.36909
6.33	7.376
6.34	7.33685
6.35	7.29935
6.36	7.3681
6.37	7.38357
6.38	7.36975
6.39	7.37074
6.4	7.3635
6.41	7.36909
6.42	7.36251
6.43	7.33916
6.44	7.32962
6.45	7.35166
6.46	7.33389
6.47	7.31876
6.48	7.30692
6.49	7.34606
6.5	7.3283
6.51	7.33521
6.52	7.31152
6.53	7.28817
6.54	7.25593
6.55	7.3056
6.56	7.30593
6.57	7.30462
6.58	7.31449
6.59	7.26646
6.6	7.32106
6.61	7.25692
6.62	7.36514
6.63	7.34179
6.64	7.3408
6.65	7.29771
6.66	7.29245
6.67	7.29047
6.68	7.2806
6.69	7.28389
6.7	7.26383
6.71	7.31909
6.72	7.33389
6.73	7.25363
6.74	7.28948
6.75	7.27008
6.76	7.29179
6.77	7.31745
6.78	7.2283
6.79	7.2533
6.8	7.24804
6.81	7.21744
6.82	7.28126
6.83	7.24014
6.84	7.28225
6.85	7.32205
6.86	7.23126
6.87	7.20067
6.88	7.25758
6.89	7.21086
6.9	7.24836
6.91	7.30659
6.92	7.31547
6.93	7.27468
6.94	7.2533
6.95	7.26448
6.96	7.226
6.97	7.17369
6.98	7.21843
6.99	7.251
7	7.27896
7.01	7.28126
7.02	7.2306
7.03	7.25758
7.04	7.25231
7.05	7.18915
7.06	7.23948
7.07	7.19738
7.08	7.20757
7.09	7.21317
7.1	7.19211
7.11	7.21218
7.12	7.18981
7.13	7.18224
7.14	7.19409
7.15	7.2056
7.16	7.21679
7.17	7.28521
7.18	7.23981
7.19	7.21382
7.2	7.23455
7.21	7.26646
7.22	7.19738
7.23	7.22271
7.24	7.1783
7.25	7.20823
7.26	7.19672
7.27	7.18981
7.28	7.21152
7.29	7.19277
7.3	7.19113
7.31	7.21744
7.32	7.21481
7.33	7.21086
7.34	7.1931
7.35	7.15132
7.36	7.16744
7.37	7.20297
7.38	7.19836
7.39	7.20823
7.4	7.16086
7.41	7.17534
7.42	7.19014
7.43	7.22106
7.44	7.1931
7.45	7.19639
7.46	7.20725
7.47	7.20856
7.48	7.1783
7.49	7.19442
7.5	7.19442
7.51	7.18093
7.52	7.15461
7.53	7.14244
7.54	7.18849
7.55	7.19869
7.56	7.14836
7.57	7.18882
7.58	7.15395
7.59	7.1454
7.6	7.11777
7.61	7.16974
7.62	7.14178
7.63	7.14639
7.64	7.13027
7.65	7.15988
7.66	7.14935
7.67	7.12928
7.68	7.17369
7.69	7.17007
7.7	7.11119
7.71	7.17106
7.72	7.17402
7.73	7.1408
7.74	7.12139
7.75	7.14409
7.76	7.09672
7.77	7.0556
7.78	7.10132
7.79	7.16514
7.8	7.18192
7.81	7.13191
7.82	7.10527
7.83	7.13652
7.84	7.14277
7.85	7.09705
7.86	7.05823
7.87	7.09211
7.88	7.08389
7.89	7.08849
7.9	7.1056
7.91	7.11316
7.92	7.10264
7.93	7.09573
7.94	7.05823
7.95	7.08619
7.96	7.14244
7.97	7.11316
7.98	7.09047
7.99	7.08586
8	7.11941
8.01	7.0681
8.02	7.0681
8.03	7.08454
8.04	7.09935
8.05	7.0431
8.06	7.09145
8.07	7.07632
8.08	7.08685
8.09	7.08422
8.1	7.10362
8.11	7.10987
8.12	7.09573
8.13	7.08224
8.14	7.10823
8.15	7.06645
8.16	7.05428
8.17	7.14244
8.18	7.06678
8.19	7.05922
8.2	7.06415
8.21	7.01481
8.22	7.07139
8.23	7.02566
8.24	7.04573
8.25	7.11481
8.26	7.07895
8.27	7.14113
8.28	7.11415
8.29	7.1283
8.3	7.0829
8.31	7.03125
8.32	7.0125
8.33	7.07172
8.34	7.06152
8.35	7.04408
8.36	7.04869
8.37	7.09343
8.38	7.01777
8.39	7.02007
8.4	7.0352
8.41	7.07928
8.42	7.11547
8.43	7.11711
8.44	7.11876
8.45	7.07237
8.46	7.02961
8.47	7.05329
8.48	7.025
8.49	7.0329
8.5	7.08619
8.51	7.0852
8.52	7.04704
8.53	7.12599
8.54	7.06678
8.55	7.04112
8.56	6.97237
8.57	6.99606
8.58	7.00395
8.59	7.02171
8.6	7.0352
8.61	7.04244
8.62	7.03948
8.63	7.03257
8.64	7.09277
8.65	6.99573
8.66	7.02994
8.67	7.06316
8.68	7.05494
8.69	6.98652
8.7	7.01053
8.71	7.04902
8.72	6.97763
8.73	7.00921
8.74	6.97698
8.75	7.00033
8.76	7.04507
8.77	7.0227
8.78	6.91842
8.79	6.97796
8.8	7.01448
8.81	7.0227
8.82	7.0102
8.83	6.98849
8.84	7.01217
8.85	6.97007
8.86	7.02237
8.87	7.01941
8.88	6.97369
8.89	6.98948
8.9	7.02731
8.91	6.95855
8.92	6.95724
8.93	6.9727
8.94	7.02139
8.95	6.96119
8.96	6.97434
8.97	6.96316
8.98	6.98191
8.99	6.98388
9	6.98323
9.01	6.99573
9.02	6.9375
9.03	6.95428
9.04	6.95592
9.05	6.98849
9.06	6.99112
9.07	6.94211
9.08	7.00428
9.09	6.96382
9.1	7.02829
9.11	7.02533
9.12	6.94803
9.13	6.95198
9.14	6.98816
9.15	6.92105
9.16	6.92007
9.17	6.97665
9.18	6.9579
9.19	6.97895
9.2	6.96809
9.21	6.96086
9.22	6.95987
9.23	6.90888
9.24	6.95329
9.25	6.96777
9.26	6.97106
9.27	6.94079
9.28	6.9227
9.29	6.92237
9.3	6.93915
9.31	6.95987
9.32	6.98816
9.33	6.93421
9.34	6.94046
9.35	6.9398
9.36	6.90822
9.37	6.95888
9.38	6.96579
9.39	6.95099
9.4	6.93553
9.41	7.02007
9.42	6.93224
9.43	6.95132
9.44	6.92171
9.45	6.92336
9.46	6.92632
9.47	6.93158
9.48	6.88355
9.49	6.9125
9.5	6.96053
9.51	6.98553
9.52	6.9227
9.53	6.94309
9.54	6.97731
9.55	6.97204
9.56	6.94605
9.57	6.91053
9.58	6.90691
9.59	6.90855
9.6	6.93684
9.61	6.95494
9.62	6.90362
9.63	6.90526
9.64	6.96612
9.65	6.9625
9.66	6.92829
9.67	6.94671
9.68	6.92105
9.69	6.9375
9.7	6.93915
9.71	6.9079
9.72	6.89178
9.73	6.93915
9.74	6.94375
9.75	6.93224
9.76	6.91316
9.77	6.90592
9.78	6.8954
9.79	6.89243
9.8	6.92171
9.81	6.9579
9.82	6.92566
9.83	6.93026
9.84	6.8954
9.85	6.87599
9.86	6.88257
9.87	6.86382
9.88	6.92829
9.89	6.9
9.9	6.89836
9.91	6.96217
9.92	6.91184
9.93	6.9273
9.94	6.91678
9.95	6.90165
9.96	6.87664
9.97	6.90493
9.98	6.91908
9.99	6.85592
10	6.91316
10.01	6.88783
10.02	6.88783
10.03	6.90033
10.04	6.89737
10.05	6.86612
10.06	6.90855
10.07	6.8727
10.08	6.89836
10.09	6.86283
10.1	6.92599
10.11	6.92105
10.12	6.95362
10.13	6.88586
10.14	6.89737
10.15	6.86809
10.16	6.83059
10.17	6.8273
10.18	6.84934
10.19	6.87204
10.2	6.84375
10.21	6.8171
10.22	6.86118
10.23	6.90132
10.24	6.86645
10.25	6.83125
10.26	6.84506
10.27	6.89243
10.28	6.90954
10.29	6.88783
10.3	6.88684
10.31	6.87204
10.32	6.88092
10.33	6.83158
10.34	6.81579
10.35	6.88158
10.36	6.84276
10.37	6.82895
10.38	6.85724
10.39	6.82599
10.4	6.81052
10.41	6.89112
10.42	6.89375
10.43	6.83487
10.44	6.80756
10.45	6.86809
10.46	6.86053
10.47	6.82171
10.48	6.83454
10.49	6.86612
10.5	6.84309
10.51	6.82434
10.52	6.79704
10.53	6.80855
10.54	6.84671
10.55	6.85526
10.56	6.85395
10.57	6.84967
10.58	6.77204
10.59	6.82302
10.6	6.82829
10.61	6.85493
10.62	6.83388
10.63	6.85658
10.64	6.82927
10.65	6.80263
10.66	6.77927
10.67	6.78914
10.68	6.79243
10.69	6.82006
10.7	6.84868
10.71	6.84013
10.72	6.86085
10.73	6.84506
10.74	6.83421
10.75	6.82105
10.76	6.74671
10.77	6.79013
10.78	6.80066
10.79	6.81546
10.8	6.80131
10.81	6.79934
10.82	6.81612
10.83	6.8273
10.84	6.80098
10.85	6.87961
10.86	6.74243
10.87	6.79046
10.88	6.78158
10.89	6.81316
10.9	6.82171
10.91	6.82697
10.92	6.79638
10.93	6.82862
10.94	6.81842
10.95	6.83783
10.96	6.8023
10.97	6.78848
10.98	6.79079
10.99	6.81579
11	6.82862
11.01	6.78322
11.02	6.82895
11.03	6.8148
11.04	6.78947
11.05	6.78256
11.06	6.77763
11.07	6.81677
11.08	6.76217
11.09	6.74375
11.1	6.79177
11.11	6.83717
11.12	6.81118
11.13	6.82335
11.14	6.7898
11.15	6.74638
11.16	6.7546
11.17	6.80164
11.18	6.82927
11.19	6.83026
11.2	6.78651
11.21	6.79441
11.22	6.81645
11.23	6.77204
11.24	6.78585
11.25	6.81743
11.26	6.78717
11.27	6.80066
11.28	6.8102
11.29	6.79572
11.3	6.77269
11.31	6.85428
11.32	6.83783
11.33	6.7977
11.34	6.77467
11.35	6.79868
11.36	6.8148
11.37	6.82434
11.38	6.76447
11.39	6.75065
11.4	6.79145
11.41	6.79967
11.42	6.7921
11.43	6.77862
11.44	6.79671
11.45	6.79572
11.46	6.76414
11.47	6.84474
11.48	6.79868
11.49	6.75822
11.5	6.79802
11.51	6.79605
11.52	6.78947
11.53	6.80526
11.54	6.8125
11.55	6.78322
11.56	6.77302
11.57	6.78914
11.58	6.76546
11.59	6.74605
11.6	6.7375
11.61	6.72565
11.62	6.78684
11.63	6.74736
11.64	6.77993
11.65	6.77467
11.66	6.7875
11.67	6.79309
11.68	6.76842
11.69	6.73618
11.7	6.73585
11.71	6.72467
11.72	6.75559
11.73	6.76348
11.74	6.74868
11.75	6.74144
11.76	6.75
11.77	6.77171
11.78	6.76151
11.79	6.76612
11.8	6.74835
11.81	6.725
11.82	6.75658
11.83	6.77862
11.84	6.78191
11.85	6.75493
11.86	6.80131
11.87	6.77894
11.88	6.74342
11.89	6.72269
11.9	6.7546
11.91	6.79605
11.92	6.74671
11.93	6.72368
11.94	6.73815
11.95	6.76513
11.96	6.75822
11.97	6.75427
11.98	6.7773
11.99	6.75197
12	6.74473
12.01	6.72236
12.02	6.71611
12.03	6.7625
12.04	6.75394
12.05	6.70065
12.06	6.7296
12.07	6.7977
12.08	6.83191
12.09	6.72302
12.1	6.7398
12.11	6.78914
12.12	6.68289
12.13	6.73158
12.14	6.74243
12.15	6.77072
12.16	6.70921
12.17	6.75822
12.18	6.7273
12.19	6.73125
12.2	6.76118
12.21	6.74144
12.22	6.75888
12.23	6.74868
12.24	6.76283
12.25	6.7194
12.26	6.69703
12.27	6.73519
12.28	6.76546
12.29	6.76579
12.3	6.72894
12.31	6.67763
12.32	6.68157
12.33	6.71315
12.34	6.77401
12.35	6.73421
12.36	6.74046
12.37	6.71579
12.38	6.69276
12.39	6.76184
12.4	6.74408
12.41	6.74111
12.42	6.68486
12.43	6.77335
12.44	6.74144
12.45	6.76052
12.46	6.73783
12.47	6.72927
12.48	6.72697
12.49	6.77204
12.5	6.70592
12.51	6.70789
12.52	6.7148
12.53	6.73815
12.54	6.75723
12.55	6.70197
12.56	6.72105
12.57	6.74835
12.58	6.74144
12.59	6.70986
12.6	6.76019
12.61	6.73684
12.62	6.70723
12.63	6.70953
12.64	6.68453
12.65	6.70361
12.66	6.69835
12.67	6.7125
12.68	6.68782
12.69	6.70131
12.7	6.69605
12.71	6.69375
12.72	6.69407
12.73	6.72302
12.74	6.69243
12.75	6.6898
12.76	6.68256
12.77	6.70888
12.78	6.68782
12.79	6.68289
12.8	6.70328
12.81	6.67894
12.82	6.6546
12.83	6.6421
12.84	6.70592
12.85	6.73618
12.86	6.71348
12.87	6.68322
12.88	6.73256
12.89	6.70493
12.9	6.68651
12.91	6.68157
12.92	6.71907
12.93	6.72532
12.94	6.72138
12.95	6.7046
12.96	6.72039
12.97	6.68552
12.98	6.67631
12.99	6.68749
13	6.66447
13.01	6.67697
13.02	6.7194
13.03	6.65559
13.04	6.6694
13.05	6.69046
13.06	6.67796
13.07	6.67631
13.08	6.68519
13.09	6.65986
13.1	6.70328
13.11	6.68815
13.12	6.70789
13.13	6.69013
13.14	6.6671
13.15	6.66578
13.16	6.71151
13.17	6.69276
13.18	6.67598
13.19	6.65953
13.2	6.62762
13.21	6.67796
13.22	6.65559
13.23	6.66973
13.24	6.68749
13.25	6.72138
13.26	6.66118
13.27	6.72894
13.28	6.7
13.29	6.6421
13.3	6.65559
13.31	6.68618
13.32	6.68355
13.33	6.66842
13.34	6.67499
13.35	6.65526
13.36	6.66085
13.37	6.65822
13.38	6.60657
13.39	6.65526
13.4	6.65164
13.41	6.64966
13.42	6.67598
13.43	6.70789
13.44	6.67138
13.45	6.63914
13.46	6.6694
13.47	6.68026
13.48	6.6523
13.49	6.68684
13.5	6.70921
13.51	6.69342
13.52	6.70723
13.53	6.65822
13.54	6.66776
13.55	6.6444
13.56	6.68092
13.57	6.66842
13.58	6.62664
13.59	6.60131
13.6	6.65624
13.61	6.65361
13.62	6.60822
13.63	6.66907
13.64	6.68651
13.65	6.62861
13.66	6.6342
13.67	6.66184
13.68	6.6921
13.69	6.66052
13.7	6.6523
13.71	6.69967
13.72	6.66513
13.73	6.64013
13.74	6.64769
