"BIO-KINE ASCII FILE"
"_COMMENT"	"MOS-500 Spectrometer"
"_COMMENT"	"Kinetics measurement"
"_COMMENT"	"Y Unit : Volt,  X Unit : s"
"_COMMENT"	"Excitation wavelength : 380 nm"
"_COMMENT"	"Fentes bandwidth =  1 nm"
"_COMMENT"	"HV= 700V"
"_COMMENT"	"Timebase  1 =  .01 s   3001 pts"
"_SFM"	"SFM-400 /S  Advanced mode"
"_SFM"	"Ratio : S1: 2.5, S2: 0, S3: 0, S4: 1"
"_SFM"	"Content : S1: , S2: , S3: , S4:"
"_SFM"	"Concentration : S1: , S2: , S3: , S4:"
"_SFM"	"Total volume : 209 µl  Flow : 3.5 mL/s"
"_SFM"	"Acquisition start :  10 ms before stop"
"_SFM"	"cuve=FC-15, s1=10 ml , s2=10 ml , s3=10 ml , s4=1.9 ml"
"_UNITX"	"s"
"_UNITY"	"Volt"
"_DELTAX"	0
"_DATA"
1e-300	7.29409
0.01	8.05069
0.02	8.2701
0.03	8.32438
0.04	8.31286
0.05	8.3178
0.06	8.31155
0.07	8.31747
0.08	8.31582
0.09	8.328
0.1	8.33425
0.11	8.33885
0.12	8.3349
0.13	8.35563
0.14	8.35069
0.15	8.3428
0.16	8.34412
0.17	8.33227
0.18	8.3155
0.19	8.31451
0.2	8.31714
0.21	8.32142
0.22	8.30957
0.23	8.31418
0.24	8.3201
0.25	8.30925
0.26	8.29576
0.27	8.28688
0.28	8.29971
0.29	8.29707
0.3	8.2826
0.31	8.26813
0.32	8.27142
0.33	8.25826
0.34	8.27142
0.35	8.25924
0.36	8.26615
0.37	8.24642
0.38	8.23424
0.39	8.23392
0.4	8.22865
0.41	8.22174
0.42	8.21319
0.43	8.21188
0.44	8.21582
0.45	8.20332
0.46	8.19773
0.47	8.19148
0.48	8.17536
0.49	8.17635
0.5	8.17733
0.51	8.16977
0.52	8.15661
0.53	8.15793
0.54	8.16385
0.55	8.14214
0.56	8.13062
0.57	8.12536
0.58	8.12306
0.59	8.11154
0.6	8.1099
0.61	8.1076
0.62	8.11023
0.63	8.0951
0.64	8.08556
0.65	8.08457
0.66	8.08029
0.67	8.06845
0.68	8.07898
0.69	8.07865
0.7	8.07832
0.71	8.06319
0.72	8.04608
0.73	8.03029
0.74	8.03819
0.75	8.0247
0.76	8.01746
0.77	8.02602
0.78	8.02536
0.79	8.00727
0.8	7.9997
0.81	7.99641
0.82	7.99838
0.83	7.9895
0.84	7.99016
0.85	7.97272
0.86	7.95628
0.87	7.9599
0.88	7.95595
0.89	7.92897
0.9	7.93259
0.91	7.92042
0.92	7.91647
0.93	7.92404
0.94	7.91911
0.95	7.90825
0.96	7.91121
0.97	7.8941
0.98	7.8895
0.99	7.89674
1	7.8645
1.01	7.85891
1.02	7.87272
1.03	7.86285
1.04	7.85134
1.05	7.84904
1.06	7.85101
1.07	7.84246
1.08	7.81483
1.09	7.82042
1.1	7.81088
1.11	7.80233
1.12	7.79246
1.13	7.7895
1.14	7.78851
1.15	7.77239
1.16	7.77502
1.17	7.777
1.18	7.76219
1.19	7.75529
1.2	7.74246
1.21	7.74936
1.22	7.74279
1.23	7.73686
1.24	7.71746
1.25	7.72601
1.26	7.71219
1.27	7.7089
1.28	7.6964
1.29	7.68127
1.3	7.68292
1.31	7.66351
1.32	7.6737
1.33	7.6862
1.34	7.67469
1.35	7.65199
1.36	7.65166
1.37	7.64048
1.38	7.63522
1.39	7.63587
1.4	7.61614
1.41	7.62337
1.42	7.61252
1.43	7.61219
1.44	7.60298
1.45	7.58554
1.46	7.58686
1.47	7.57765
1.48	7.56844
1.49	7.56647
1.5	7.55725
1.51	7.54048
1.52	7.551
1.53	7.54475
1.54	7.53258
1.55	7.53554
1.56	7.52041
1.57	7.50923
1.58	7.50824
1.59	7.50265
1.6	7.50035
1.61	7.48653
1.62	7.4783
1.63	7.47666
1.64	7.46613
1.65	7.45923
1.66	7.45232
1.67	7.46284
1.68	7.46219
1.69	7.43916
1.7	7.42929
1.71	7.4283
1.72	7.41942
1.73	7.41383
1.74	7.40955
1.75	7.41613
1.76	7.39903
1.77	7.39311
1.78	7.39245
1.79	7.37896
1.8	7.36942
1.81	7.37074
1.82	7.35791
1.83	7.351
1.84	7.34409
1.85	7.34212
1.86	7.34935
1.87	7.34968
1.88	7.3431
1.89	7.31185
1.9	7.32106
1.91	7.32797
1.92	7.31284
1.93	7.28883
1.94	7.29343
1.95	7.28093
1.96	7.26843
1.97	7.26481
1.98	7.25955
1.99	7.25856
2	7.25955
2.01	7.25659
2.02	7.24573
2.03	7.23258
2.04	7.23488
2.05	7.22632
2.06	7.22402
2.07	7.21481
2.08	7.20165
2.09	7.18948
2.1	7.19014
2.11	7.18586
2.12	7.16974
2.13	7.17073
2.14	7.17139
2.15	7.15856
2.16	7.15067
2.17	7.13948
2.18	7.13751
2.19	7.14277
2.2	7.13191
2.21	7.11645
2.22	7.11185
2.23	7.1102
2.24	7.09902
2.25	7.09211
2.26	7.09145
2.27	7.07764
2.28	7.0704
2.29	7.06645
2.3	7.06448
2.31	7.04671
2.32	7.04474
2.33	7.03915
2.34	7.02731
2.35	7.03257
2.36	7.02632
2.37	7.01842
2.38	7.01645
2.39	7.01448
2.4	7.00625
2.41	6.98421
2.42	6.99277
2.43	6.98125
2.44	6.96744
2.45	6.96382
2.46	6.96415
2.47	6.96184
2.48	6.96184
2.49	6.94178
2.5	6.94902
2.51	6.94276
2.52	6.9352
2.53	6.92665
2.54	6.91546
2.55	6.90329
2.56	6.90066
2.57	6.90395
2.58	6.89276
2.59	6.89737
2.6	6.87993
2.61	6.88257
2.62	6.86809
2.63	6.86776
2.64	6.85559
2.65	6.85362
2.66	6.85954
2.67	6.85954
2.68	6.84868
2.69	6.83881
2.7	6.82302
2.71	6.81579
2.72	6.80197
2.73	6.8102
2.74	6.80625
2.75	6.8
2.76	6.79901
2.77	6.77368
2.78	6.7796
2.79	6.7796
2.8	6.77566
2.81	6.76612
2.82	6.76447
2.83	6.75559
2.84	6.74243
2.85	6.73717
2.86	6.73848
2.87	6.73914
2.88	6.71085
2.89	6.7171
2.9	6.70526
2.91	6.69703
2.92	6.69868
2.93	6.70361
2.94	6.69078
2.95	6.67532
2.96	6.6648
2.97	6.66677
2.98	6.6546
2.99	6.64999
3	6.63585
3.01	6.63947
3.02	6.64407
3.03	6.62927
3.04	6.62894
3.05	6.61578
3.06	6.61743
3.07	6.61151
3.08	6.59966
3.09	6.58947
3.1	6.5842
3.11	6.58322
3.12	6.58058
3.13	6.56743
3.14	6.56611
3.15	6.56447
3.16	6.55657
3.17	6.54571
3.18	6.54341
3.19	6.54473
3.2	6.54374
3.21	6.5342
3.22	6.53486
3.23	6.52137
3.24	6.51907
3.25	6.51446
3.26	6.49111
3.27	6.49867
3.28	6.49209
3.29	6.48782
3.3	6.47598
3.31	6.49045
3.32	6.48486
3.33	6.47861
3.34	6.46775
3.35	6.45986
3.36	6.4467
3.37	6.44999
3.38	6.4444
3.39	6.43551
3.4	6.44407
3.41	6.43979
3.42	6.42433
3.43	6.42005
3.44	6.41676
3.45	6.40492
3.46	6.40755
3.47	6.40722
3.48	6.39012
3.49	6.38485
3.5	6.39111
3.51	6.37367
3.52	6.37071
3.53	6.37499
3.54	6.36643
3.55	6.34933
3.56	6.35196
3.57	6.34209
3.58	6.3365
3.59	6.32498
3.6	6.32729
3.61	6.33025
3.62	6.32466
3.63	6.31051
3.64	6.30163
3.65	6.30393
3.66	6.29242
3.67	6.29439
3.68	6.28222
3.69	6.27663
3.7	6.28551
3.71	6.27597
3.72	6.27498
3.73	6.26051
3.74	6.25623
3.75	6.26248
3.76	6.26117
3.77	6.23979
3.78	6.22827
3.79	6.22696
3.8	6.23353
3.81	6.23584
3.82	6.22564
3.83	6.21248
3.84	6.2059
3.85	6.20492
3.86	6.20031
3.87	6.19538
3.88	6.18748
3.89	6.18715
3.9	6.18386
3.91	6.16972
3.92	6.16445
3.93	6.1559
3.94	6.15393
3.95	6.14932
3.96	6.14998
3.97	6.1434
3.98	6.13682
3.99	6.12728
4	6.1184
4.01	6.12333
4.02	6.11314
4.03	6.10656
4.04	6.1059
4.05	6.0832
4.06	6.09044
4.07	6.07925
4.08	6.07596
4.09	6.09143
4.1	6.07399
4.11	6.06807
4.12	6.06248
4.13	6.06577
4.14	6.05425
4.15	6.04998
4.16	6.04702
4.17	6.05261
4.18	6.03879
4.19	6.02695
4.2	6.02366
4.21	6.02103
4.22	6.00919
4.23	6.01017
4.24	6.01577
4.25	6.00195
4.26	5.98616
4.27	5.98846
4.28	5.99373
4.29	5.99603
4.3	5.99044
4.31	5.97892
4.32	5.97103
4.33	5.9628
4.34	5.96905
4.35	5.96412
4.36	5.94636
4.37	5.948
4.38	5.94767
4.39	5.94109
4.4	5.94405
4.41	5.93484
4.42	5.93287
4.43	5.93188
4.44	5.92432
4.45	5.93024
4.46	5.91938
4.47	5.90359
4.48	5.90918
4.49	5.90392
4.5	5.90063
4.51	5.89339
4.52	5.89306
4.53	5.87793
4.54	5.87037
4.55	5.86576
4.56	5.87201
4.57	5.85227
4.58	5.83944
4.59	5.85787
4.6	5.85129
4.61	5.84405
4.62	5.84405
4.63	5.83648
4.64	5.83648
4.65	5.82004
4.66	5.83714
4.67	5.82662
4.68	5.81971
4.69	5.8128
4.7	5.81675
4.71	5.80589
4.72	5.8026
4.73	5.79273
4.74	5.78319
4.75	5.773
4.76	5.76346
4.77	5.76806
4.78	5.78254
4.79	5.77069
4.8	5.76082
4.81	5.73878
4.82	5.75721
4.83	5.75326
4.84	5.73944
4.85	5.7378
4.86	5.73352
4.87	5.73747
4.88	5.72694
4.89	5.72595
4.9	5.7253
4.91	5.72892
4.92	5.71641
4.93	5.70951
4.94	5.70786
4.95	5.70819
4.96	5.69964
4.97	5.69635
4.98	5.68483
4.99	5.68681
5	5.67891
5.01	5.69207
5.02	5.68648
5.03	5.67891
5.04	5.66345
5.05	5.66049
5.06	5.67168
5.07	5.66411
5.08	5.64569
5.09	5.647
5.1	5.64372
5.11	5.62891
5.12	5.63582
5.13	5.61444
5.14	5.6276
5.15	5.63187
5.16	5.61937
5.17	5.61049
5.18	5.61411
5.19	5.60589
5.2	5.60227
5.21	5.59536
5.22	5.58681
5.23	5.58713
5.24	5.59174
5.25	5.58483
5.26	5.57694
5.27	5.57924
5.28	5.56312
5.29	5.56477
5.3	5.56477
5.31	5.56477
5.32	5.55786
5.33	5.56477
5.34	5.55917
5.35	5.55358
5.36	5.55523
5.37	5.55588
5.38	5.54141
5.39	5.53845
5.4	5.53549
5.41	5.53417
5.42	5.52825
5.43	5.52101
5.44	5.52069
5.45	5.51115
5.46	5.51115
5.47	5.50161
5.48	5.50457
5.49	5.50588
5.5	5.5049
5.51	5.49963
5.52	5.50654
5.53	5.50029
5.54	5.48911
5.55	5.47858
5.56	5.47891
5.57	5.48483
5.58	5.4743
5.59	5.46114
5.6	5.46016
5.61	5.45753
5.62	5.45687
5.63	5.44897
5.64	5.44831
5.65	5.44996
5.66	5.44009
5.67	5.4368
5.68	5.44634
5.69	5.42726
5.7	5.42726
5.71	5.41673
5.72	5.40489
5.73	5.41838
5.74	5.42035
5.75	5.41114
5.76	5.40489
5.77	5.39173
5.78	5.39733
5.79	5.40489
5.8	5.39404
5.81	5.39437
5.82	5.38779
5.83	5.38121
5.84	5.36015
5.85	5.37035
5.86	5.3766
5.87	5.37759
5.88	5.36476
5.89	5.36015
5.9	5.34963
5.91	5.35719
5.92	5.35423
5.93	5.34798
5.94	5.35029
5.95	5.34765
5.96	5.34404
5.97	5.35884
5.98	5.33976
5.99	5.33088
6	5.32627
6.01	5.32759
6.02	5.33186
6.03	5.33647
6.04	5.3266
6.05	5.32331
6.06	5.31607
6.07	5.31278
6.08	5.29897
6.09	5.30028
6.1	5.29897
6.11	5.29699
6.12	5.30489
6.13	5.29239
6.14	5.29173
6.15	5.29897
6.16	5.2937
6.17	5.29239
6.18	5.27792
6.19	5.28022
6.2	5.28482
6.21	5.28318
6.22	5.27528
6.23	5.26969
6.24	5.26114
6.25	5.26838
6.26	5.26311
6.27	5.26048
6.28	5.24601
6.29	5.24962
6.3	5.23548
6.31	5.24107
6.32	5.2368
6.33	5.23943
6.34	5.2391
6.35	5.23219
6.36	5.21936
6.37	5.22331
6.38	5.22462
6.39	5.21476
6.4	5.21508
6.41	5.21804
6.42	5.22429
6.43	5.21739
6.44	5.21147
6.45	5.20522
6.46	5.19666
6.47	5.19436
6.48	5.18975
6.49	5.18975
6.5	5.19403
6.51	5.18811
6.52	5.18383
6.53	5.19173
6.54	5.18778
6.55	5.18318
6.56	5.1687
6.57	5.1766
6.58	5.16311
6.59	5.16377
6.6	5.15982
6.61	5.15488
6.62	5.14798
6.63	5.15225
6.64	5.1585
6.65	5.15127
6.66	5.1391
6.67	5.14074
6.68	5.14337
6.69	5.13515
6.7	5.13679
6.71	5.13284
6.72	5.12331
6.73	5.12232
6.74	5.12594
6.75	5.11541
6.76	5.11475
6.77	5.1164
6.78	5.13054
6.79	5.11508
6.8	5.11278
6.81	5.11903
6.82	5.10883
6.83	5.09929
6.84	5.11146
6.85	5.10159
6.86	5.10291
6.87	5.08844
6.88	5.09173
6.89	5.08778
6.9	5.07462
6.91	5.08021
6.92	5.08416
6.93	5.0789
6.94	5.07955
6.95	5.07462
6.96	5.06672
6.97	5.07396
6.98	5.06969
6.99	5.06969
7	5.06475
7.01	5.06278
7.02	5.06212
7.03	5.05751
7.04	5.05949
7.05	5.05422
7.06	5.05291
7.07	5.0483
7.08	5.04304
7.09	5.04172
7.1	5.04238
7.11	5.03054
7.12	5.02297
7.13	5.03021
7.14	5.02725
7.15	5.02166
7.16	5.02034
7.17	5.02626
7.18	5.01837
7.19	5.00751
7.2	5.01903
7.21	5.0131
7.22	5.01212
7.23	5.01376
7.24	5.01278
7.25	5.00455
7.26	5.00356
7.27	4.99797
7.28	4.99172
7.29	4.98712
7.3	4.99666
7.31	4.98876
7.32	4.9835
7.33	4.98021
7.34	4.99139
7.35	4.98218
7.36	4.98251
7.37	4.97659
7.38	4.98843
7.39	4.97626
7.4	4.97527
7.41	4.97922
7.42	4.97922
7.43	4.95981
7.44	4.97955
7.45	4.96475
7.46	4.96113
7.47	4.95554
7.48	4.96442
7.49	4.96771
7.5	4.95948
7.51	4.96212
7.52	4.94896
7.53	4.95521
7.54	4.96508
7.55	4.94567
7.56	4.9404
7.57	4.94731
7.58	4.94435
7.59	4.94337
7.6	4.9279
7.61	4.92593
7.62	4.93975
7.63	4.93646
7.64	4.93909
7.65	4.92067
7.66	4.92067
7.67	4.91409
7.68	4.92461
7.69	4.9131
7.7	4.91606
7.71	4.91409
7.72	4.91014
7.73	4.89994
7.74	4.90817
7.75	4.91343
7.76	4.90093
7.77	4.89731
7.78	4.90323
7.79	4.89863
7.8	4.89863
7.81	4.9006
7.82	4.88185
7.83	4.90488
7.84	4.89336
7.85	4.89402
7.86	4.88382
7.87	4.88711
7.88	4.88415
7.89	4.8881
7.9	4.88317
7.91	4.88514
7.92	4.87231
7.93	4.88152
7.94	4.88317
7.95	4.87099
7.96	4.87132
7.97	4.86902
7.98	4.85553
7.99	4.86902
8	4.87231
8.01	4.86771
8.02	4.86442
8.03	4.85652
8.04	4.86244
8.05	4.86211
8.06	4.85718
8.07	4.84863
8.08	4.84961
8.09	4.8506
8.1	4.85027
8.11	4.8404
8.12	4.84567
8.13	4.84863
8.14	4.83349
8.15	4.83744
8.16	4.83777
8.17	4.83974
8.18	4.83909
8.19	4.84369
8.2	4.83481
8.21	4.83711
8.22	4.82461
8.23	4.82823
8.24	4.8233
8.25	4.82362
8.26	4.81277
8.27	4.82593
8.28	4.8233
8.29	4.81672
8.3	4.80553
8.31	4.80948
8.32	4.80652
8.33	4.80882
8.34	4.80619
8.35	4.79961
8.36	4.80356
8.37	4.80816
8.38	4.80685
8.39	4.78382
8.4	4.79336
8.41	4.80257
8.42	4.80356
8.43	4.7881
8.44	4.78382
8.45	4.78941
8.46	4.78941
8.47	4.79303
8.48	4.77724
8.49	4.79073
8.5	4.77954
8.51	4.78152
8.52	4.77527
8.53	4.76277
8.54	4.77625
8.55	4.78283
8.56	4.77724
8.57	4.77691
8.58	4.76803
8.59	4.77
8.6	4.76968
8.61	4.77264
8.62	4.77527
8.63	4.76014
8.64	4.76968
8.65	4.76935
8.66	4.76112
8.67	4.75586
8.68	4.76408
8.69	4.75816
8.7	4.745
8.71	4.74204
8.72	4.75783
8.73	4.75125
8.74	4.74533
8.75	4.75487
8.76	4.7404
8.77	4.75323
8.78	4.74369
8.79	4.74764
8.8	4.74106
8.81	4.74599
8.82	4.745
8.83	4.73842
8.84	4.74435
8.85	4.74139
8.86	4.73875
8.87	4.73152
8.88	4.71573
8.89	4.71902
8.9	4.73185
8.91	4.7256
8.92	4.73546
8.93	4.72954
8.94	4.70849
8.95	4.72921
8.96	4.72099
8.97	4.73086
8.98	4.71375
8.99	4.7154
9	4.71046
9.01	4.7052
9.02	4.72625
9.03	4.7177
9.04	4.72099
9.05	4.71342
9.06	4.70652
9.07	4.70619
9.08	4.70882
9.09	4.7052
9.1	4.70388
9.11	4.69994
9.12	4.70652
9.13	4.70915
9.14	4.69731
9.15	4.70454
9.16	4.70059
9.17	4.69994
9.18	4.69599
9.19	4.69073
9.2	4.69237
9.21	4.695
9.22	4.69138
9.23	4.69467
9.24	4.69698
9.25	4.69533
9.26	4.6848
9.27	4.68513
9.28	4.68086
9.29	4.67132
9.3	4.6802
9.31	4.6802
9.32	4.67757
9.33	4.67855
9.34	4.67855
9.35	4.67428
9.36	4.66934
9.37	4.67296
9.38	4.6779
9.39	4.67428
9.4	4.66737
9.41	4.66737
9.42	4.67625
9.43	4.66967
9.44	4.67
9.45	4.67888
9.46	4.67296
9.47	4.65619
9.48	4.66441
9.49	4.66967
9.5	4.6654
9.51	4.66211
9.52	4.66145
9.53	4.64336
9.54	4.65454
9.55	4.66013
9.56	4.65191
9.57	4.65783
9.58	4.64895
9.59	4.65257
9.6	4.65257
9.61	4.6575
9.62	4.65322
9.63	4.64204
9.64	4.64566
9.65	4.65059
9.66	4.64862
9.67	4.64401
9.68	4.65092
9.69	4.64434
9.7	4.62724
9.71	4.63513
9.72	4.64763
9.73	4.6348
9.74	4.6302
9.75	4.63447
9.76	4.63283
9.77	4.63711
9.78	4.63513
9.79	4.63382
9.8	4.62724
9.81	4.62625
9.82	4.6279
9.83	4.63809
9.84	4.62822
9.85	4.62855
9.86	4.62493
9.87	4.63842
9.88	4.63086
9.89	4.63217
9.9	4.61967
9.91	4.61539
9.92	4.63217
9.93	4.63118
9.94	4.62296
9.95	4.62132
9.96	4.62625
9.97	4.62197
9.98	4.61638
9.99	4.62197
10	4.63151
10.01	4.62164
10.02	4.61572
10.03	4.62625
10.04	4.61704
10.05	4.6098
10.06	4.61375
10.07	4.60421
10.08	4.61342
10.09	4.61276
10.1	4.61112
10.11	4.61046
10.12	4.61474
10.13	4.61803
10.14	4.61211
10.15	4.60783
10.16	4.61441
10.17	4.60158
10.18	4.60388
10.19	4.60421
10.2	4.60224
10.21	4.60684
10.22	4.60487
10.23	4.59829
10.24	4.59335
10.25	4.59533
10.26	4.60355
10.27	4.60454
10.28	4.59829
10.29	4.59796
10.3	4.5848
10.31	4.58875
10.32	4.59204
10.33	4.57987
10.34	4.58283
10.35	4.58316
10.36	4.57724
10.37	4.58349
10.38	4.56967
10.39	4.58184
10.4	4.58414
10.41	4.58447
10.42	4.58217
10.43	4.58184
10.44	4.59007
10.45	4.58776
10.46	4.58184
10.47	4.57789
10.48	4.57559
10.49	4.58645
10.5	4.58645
10.51	4.57822
10.52	4.56868
10.53	4.57033
10.54	4.57625
10.55	4.57855
10.56	4.57954
10.57	4.57033
10.58	4.56835
10.59	4.56704
10.6	4.56375
10.61	4.56506
10.62	4.56177
10.63	4.55947
10.64	4.56309
10.65	4.56046
10.66	4.56013
10.67	4.56638
10.68	4.57362
10.69	4.56375
10.7	4.55223
10.71	4.5496
10.72	4.54598
10.73	4.5598
10.74	4.56506
10.75	4.56474
10.76	4.57099
10.77	4.55717
10.78	4.55125
10.79	4.54105
10.8	4.55322
10.81	4.55125
10.82	4.54796
10.83	4.54927
10.84	4.54796
10.85	4.54072
10.86	4.55454
10.87	4.55059
10.88	4.54993
10.89	4.55125
10.9	4.54237
10.91	4.5473
10.92	4.54434
10.93	4.54434
10.94	4.54993
10.95	4.54006
10.96	4.54566
10.97	4.53842
10.98	4.53677
10.99	4.53447
11	4.53612
11.01	4.53612
11.02	4.53184
11.03	4.53644
11.04	4.53776
11.05	4.5348
11.06	4.53283
11.07	4.52427
11.08	4.52526
11.09	4.52658
11.1	4.53447
11.11	4.52855
11.12	4.52888
11.13	4.52789
11.14	4.53644
11.15	4.53743
11.16	4.53184
11.17	4.53612
11.18	4.5371
11.19	4.53579
11.2	4.53776
11.21	4.52723
11.22	4.53612
11.23	4.5246
11.24	4.52362
11.25	4.53644
11.26	4.52329
11.27	4.53743
11.28	4.53316
11.29	4.52658
11.3	4.53217
11.31	4.53217
11.32	4.53283
11.33	4.52888
11.34	4.53348
11.35	4.52789
11.36	4.52098
11.37	4.51967
11.38	4.52559
11.39	4.51967
11.4	4.52559
11.41	4.52526
11.42	4.52164
11.43	4.51539
11.44	4.51769
11.45	4.51572
11.46	4.51408
11.47	4.51046
11.48	4.51473
11.49	4.51276
11.5	4.50552
11.51	4.51506
11.52	4.51967
11.53	4.50486
11.54	4.50355
11.55	4.5019
11.56	4.50519
11.57	4.49171
11.58	4.50223
11.59	4.50651
11.6	4.50815
11.61	4.5075
11.62	4.49927
11.63	4.49401
11.64	4.50026
11.65	4.50684
11.66	4.50651
11.67	4.49796
11.68	4.49533
11.69	4.49533
11.7	4.49335
11.71	4.50059
11.72	4.49763
11.73	4.50552
11.74	4.49171
11.75	4.49072
11.76	4.49269
11.77	4.49171
11.78	4.49072
11.79	4.48875
11.8	4.48842
11.81	4.495
11.82	4.49401
11.83	4.49236
11.84	4.49861
11.85	4.49434
11.86	4.49368
11.87	4.4973
11.88	4.48447
11.89	4.4871
11.9	4.48973
11.91	4.49105
11.92	4.48282
11.93	4.47888
11.94	4.49467
11.95	4.49138
11.96	4.48184
11.97	4.48644
11.98	4.48743
11.99	4.48315
12	4.48282
12.01	4.48842
12.02	4.4894
12.03	4.48447
12.04	4.47625
12.05	4.4825
12.06	4.47526
12.07	4.46967
12.08	4.47131
12.09	4.47625
12.1	4.46736
12.11	4.47
12.12	4.47361
12.13	4.48348
12.14	4.48513
12.15	4.4894
12.16	4.48085
12.17	4.47131
12.18	4.47197
12.19	4.47164
12.2	4.47164
12.21	4.47427
12.22	4.46605
12.23	4.46934
12.24	4.48118
12.25	4.47493
12.26	4.47855
12.27	4.47361
12.28	4.46638
12.29	4.47065
12.3	4.46736
12.31	4.46046
12.32	4.46572
12.33	4.47822
12.34	4.47329
12.35	4.46901
12.36	4.46407
12.37	4.46375
12.38	4.46868
12.39	4.46473
12.4	4.46769
12.41	4.46934
12.42	4.46046
12.43	4.46342
12.44	4.46111
12.45	4.45815
12.46	4.46342
12.47	4.45421
12.48	4.46539
12.49	4.4598
12.5	4.46342
12.51	4.46473
12.52	4.46243
12.53	4.46078
12.54	4.45914
12.55	4.4598
12.56	4.45684
12.57	4.46078
12.58	4.46342
12.59	4.46342
12.6	4.44894
12.61	4.45026
12.62	4.46276
12.63	4.45124
12.64	4.47032
12.65	4.46473
12.66	4.45585
12.67	4.46111
12.68	4.45322
12.69	4.44697
12.7	4.44828
12.71	4.45651
12.72	4.46506
12.73	4.45881
12.74	4.45388
12.75	4.45453
12.76	4.45388
12.77	4.44532
12.78	4.43578
12.79	4.44828
12.8	4.45717
12.81	4.45947
12.82	4.44631
12.83	4.45092
12.84	4.45355
12.85	4.44894
12.86	4.45026
12.87	4.44697
12.88	4.44236
12.89	4.45124
12.9	4.44927
12.91	4.44236
12.92	4.44499
12.93	4.43874
12.94	4.4371
12.95	4.45322
12.96	4.44763
12.97	4.44368
12.98	4.4496
12.99	4.45223
13	4.44796
13.01	4.44993
13.02	4.44302
13.03	4.44203
13.04	4.44763
13.05	4.44302
13.06	4.43611
13.07	4.44401
13.08	4.43019
13.09	4.44171
13.1	4.4371
13.11	4.44532
13.12	4.45585
13.13	4.44335
13.14	4.44138
13.15	4.43842
13.16	4.4348
13.17	4.44565
13.18	4.43874
13.19	4.43545
13.2	4.43907
13.21	4.43414
13.22	4.44269
13.23	4.43414
13.24	4.43513
13.25	4.43874
13.26	4.42888
13.27	4.43447
13.28	4.42953
13.29	4.4348
13.3	4.42822
13.31	4.43151
13.32	4.44138
13.33	4.43052
13.34	4.43907
13.35	4.43249
13.36	4.43513
13.37	4.43184
13.38	4.4269
13.39	4.43545
13.4	4.43249
13.41	4.42032
13.42	4.42624
13.43	4.43348
13.44	4.44631
13.45	4.44171
13.46	4.42855
13.47	4.42822
13.48	4.4246
13.49	4.43052
13.5	4.43973
13.51	4.43809
13.52	4.42295
13.53	4.41605
13.54	4.4246
13.55	4.43118
13.56	4.43381
13.57	4.43118
13.58	4.43118
13.59	4.41934
13.6	4.4246
13.61	4.44138
13.62	4.43019
13.63	4.42756
13.64	4.42789
13.65	4.41868
13.66	4.43842
13.67	4.43151
13.68	4.43776
13.69	4.42394
13.7	4.42723
13.71	4.43019
13.72	4.43973
13.73	4.42098
13.74	4.42888
