"BIO-KINE ASCII FILE"
"_COMMENT"	"MOS-500 Spectrometer"
"_COMMENT"	"Kinetics measurement"
"_COMMENT"	"Y Unit : Volt,  X Unit : s"
"_COMMENT"	"Excitation wavelength : 380 nm"
"_COMMENT"	"Fentes bandwidth =  1 nm"
"_COMMENT"	"HV= 1000V"
"_COMMENT"	"Timebase  1 =  .01 s   5001 pts"
"_SFM"	"SFM-400 /S  Advanced mode"
"_SFM"	"Ratio : S1: 2.5, S2: 0, S3: 0, S4: 1"
"_SFM"	"Content : S1: , S2: , S3: , S4:"
"_SFM"	"Concentration : S1: , S2: , S3: , S4:"
"_SFM"	"Total volume : 209 µl  Flow : 3.5 mL/s"
"_SFM"	"Acquisition start :  10 ms before stop"
"_SFM"	"cuve=FC-15, s1=10 ml , s2=10 ml , s3=10 ml , s4=1.9 ml"
"_UNITX"	"s"
"_UNITY"	"Volt"
"_DELTAX"	0
"_DATA"
1e-300	4.47394
0.01	4.48348
0.02	4.51605
0.03	4.60454
0.04	4.6598
0.05	4.71178
0.06	4.7325
0.07	4.79237
0.08	4.80093
0.09	4.79172
0.1	4.80882
0.11	4.80224
0.12	4.82659
0.13	4.82691
0.14	4.82757
0.15	4.82626
0.16	4.8177
0.17	4.85652
0.18	4.83053
0.19	4.82823
0.2	4.87034
0.21	4.8029
0.22	4.82823
0.23	4.8256
0.24	4.81869
0.25	4.87428
0.26	4.85586
0.27	4.8608
0.28	4.82988
0.29	4.85356
0.3	4.82889
0.31	4.83119
0.32	4.84238
0.33	4.82626
0.34	4.82297
0.35	4.86705
0.36	4.87922
0.37	4.89501
0.38	4.85751
0.39	4.86606
0.4	4.84632
0.41	4.84534
0.42	4.85586
0.43	4.8233
0.44	4.84731
0.45	4.82955
0.46	4.86343
0.47	4.82593
0.48	4.81705
0.49	4.85389
0.5	4.82395
0.51	4.79797
0.52	4.82198
0.53	4.82494
0.54	4.79698
0.55	4.81211
0.56	4.82461
0.57	4.84139
0.58	4.81343
0.59	4.82955
0.6	4.85652
0.61	4.83251
0.62	4.79961
0.63	4.77922
0.64	4.79468
0.65	4.84468
0.66	4.84961
0.67	4.83777
0.68	4.80553
0.69	4.84665
0.7	4.79797
0.71	4.79303
0.72	4.82099
0.73	4.84435
0.74	4.8381
0.75	4.81902
0.76	4.77593
0.77	4.77428
0.78	4.78415
0.79	4.78152
0.8	4.79402
0.81	4.78645
0.82	4.7881
0.83	4.76573
0.84	4.7802
0.85	4.79895
0.86	4.79336
0.87	4.75586
0.88	4.79172
0.89	4.77297
0.9	4.77264
0.91	4.76573
0.92	4.77132
0.93	4.75685
0.94	4.75257
0.95	4.76869
0.96	4.79961
0.97	4.74171
0.98	4.80652
0.99	4.76507
1	4.76902
1.01	4.80389
1.02	4.81376
1.03	4.78777
1.04	4.77329
1.05	4.78053
1.06	4.76277
1.07	4.73974
1.08	4.74994
1.09	4.78251
1.1	4.7381
1.11	4.73744
1.12	4.73744
1.13	4.7552
1.14	4.82428
1.15	4.78645
1.16	4.76441
1.17	4.77231
1.18	4.75356
1.19	4.74796
1.2	4.71145
1.21	4.76244
1.22	4.73842
1.23	4.73283
1.24	4.72198
1.25	4.73349
1.26	4.75027
1.27	4.77
1.28	4.73316
1.29	4.75323
1.3	4.7302
1.31	4.74237
1.32	4.72724
1.33	4.73941
1.34	4.73875
1.35	4.76079
1.36	4.74435
1.37	4.73579
1.38	4.78152
1.39	4.72033
1.4	4.7154
1.41	4.75257
1.42	4.7177
1.43	4.71869
1.44	4.69237
1.45	4.71967
1.46	4.73382
1.47	4.73217
1.48	4.7075
1.49	4.68809
1.5	4.70356
1.51	4.71013
1.52	4.71573
1.53	4.68152
1.54	4.70816
1.55	4.7506
1.56	4.73974
1.57	4.7052
1.58	4.76507
1.59	4.68875
1.6	4.70684
1.61	4.72921
1.62	4.70388
1.63	4.68382
1.64	4.65092
1.65	4.67625
1.66	4.70816
1.67	4.68842
1.68	4.69895
1.69	4.70125
1.7	4.68152
1.71	4.66605
1.72	4.70684
1.73	4.66836
1.74	4.68316
1.75	4.73678
1.76	4.69599
1.77	4.69895
1.78	4.68711
1.79	4.67658
1.8	4.7302
1.81	4.69632
1.82	4.69237
1.83	4.69566
1.84	4.70783
1.85	4.67954
1.86	4.65684
1.87	4.67987
1.88	4.66901
1.89	4.63283
1.9	4.69731
1.91	4.68448
1.92	4.6779
1.93	4.69171
1.94	4.69171
1.95	4.71902
1.96	4.7029
1.97	4.67263
1.98	4.67165
1.99	4.67198
2	4.68349
2.01	4.67527
2.02	4.67395
2.03	4.68086
2.04	4.67888
2.05	4.68349
2.06	4.66309
2.07	4.70454
2.08	4.645
2.09	4.64401
2.1	4.6529
2.11	4.63678
2.12	4.66671
2.13	4.66408
2.14	4.66836
2.15	4.65224
2.16	4.67033
2.17	4.68382
2.18	4.70092
2.19	4.70224
2.2	4.64928
2.21	4.68711
2.22	4.64434
2.23	4.69105
2.24	4.65158
2.25	4.67362
2.26	4.61704
2.27	4.62658
2.28	4.67099
2.29	4.62855
2.3	4.65783
2.31	4.66869
2.32	4.67428
2.33	4.63217
2.34	4.58908
2.35	4.62822
2.36	4.60849
2.37	4.6677
2.38	4.60355
2.39	4.64401
2.4	4.66737
2.41	4.63349
2.42	4.60816
2.43	4.64434
2.44	4.63645
2.45	4.65125
2.46	4.63349
2.47	4.62066
2.48	4.63579
2.49	4.62
2.5	4.60322
2.51	4.58809
2.52	4.63546
2.53	4.61671
2.54	4.63546
2.55	4.6427
2.56	4.64204
2.57	4.61737
2.58	4.59763
2.59	4.63447
2.6	4.61046
2.61	4.60125
2.62	4.63743
2.63	4.61803
2.64	4.57164
2.65	4.6075
2.66	4.65783
2.67	4.63382
2.68	4.62197
2.69	4.63349
2.7	4.58283
2.71	4.64007
2.72	4.60783
2.73	4.5552
2.74	4.59664
2.75	4.58809
2.76	4.58118
2.77	4.58776
2.78	4.56079
2.79	4.56112
2.8	4.59533
2.81	4.60783
2.82	4.6098
2.83	4.57131
2.84	4.55552
2.85	4.5552
2.86	4.59401
2.87	4.58118
2.88	4.55881
2.89	4.57296
2.9	4.58743
2.91	4.54566
2.92	4.56441
2.93	4.55684
2.94	4.60553
2.95	4.65224
2.96	4.63086
2.97	4.59204
2.98	4.59072
2.99	4.58743
3	4.58941
3.01	4.56605
3.02	4.58217
3.03	4.54664
3.04	4.5019
3.05	4.53052
3.06	4.56309
3.07	4.59171
3.08	4.59303
3.09	4.5552
3.1	4.58184
3.11	4.58349
3.12	4.54598
3.13	4.54829
3.14	4.55223
3.15	4.57329
3.16	4.56112
3.17	4.58217
3.18	4.55125
3.19	4.56605
3.2	4.60289
3.21	4.57362
3.22	4.56177
3.23	4.51638
3.24	4.54006
3.25	4.54039
3.26	4.54796
3.27	4.57066
3.28	4.55849
3.29	4.56474
3.3	4.5575
3.31	4.58053
3.32	4.55322
3.33	4.55947
3.34	4.55191
3.35	4.49763
3.36	4.50914
3.37	4.55914
3.38	4.51046
3.39	4.56474
3.4	4.55059
3.41	4.53283
3.42	4.53875
3.43	4.5348
3.44	4.56934
3.45	4.5723
3.46	4.52822
3.47	4.54434
3.48	4.53908
3.49	4.52822
3.5	4.53809
3.51	4.55026
3.52	4.54401
3.53	4.49861
3.54	4.49171
3.55	4.50125
3.56	4.50519
3.57	4.52427
3.58	4.47131
3.59	4.4769
3.6	4.51276
3.61	4.51177
3.62	4.495
3.63	4.49171
3.64	4.54829
3.65	4.52
3.66	4.51276
3.67	4.52131
3.68	4.50355
3.69	4.5098
3.7	4.49335
3.71	4.4769
3.72	4.53348
3.73	4.54204
3.74	4.49302
3.75	4.51539
3.76	4.45289
3.77	4.45519
3.78	4.52691
3.79	4.5246
3.8	4.48052
3.81	4.51769
3.82	4.51144
3.83	4.51967
3.84	4.50322
3.85	4.48052
3.86	4.49204
3.87	4.52164
3.88	4.4848
3.89	4.4746
3.9	4.53644
3.91	4.51802
3.92	4.46835
3.93	4.52329
3.94	4.49993
3.95	4.50552
3.96	4.51309
3.97	4.46638
3.98	4.50289
3.99	4.54467
4	4.50125
4.01	4.4644
4.02	4.4996
4.03	4.50454
4.04	4.47394
4.05	4.44894
4.06	4.46605
4.07	4.45815
4.08	4.50881
4.09	4.50322
4.1	4.44927
4.11	4.43842
4.12	4.46769
4.13	4.47164
4.14	4.47427
4.15	4.49861
4.16	4.50256
4.17	4.45256
4.18	4.44598
4.19	4.45585
4.2	4.44499
4.21	4.41341
4.22	4.4746
4.23	4.51243
4.24	4.54138
4.25	4.48809
4.26	4.47296
4.27	4.46605
4.28	4.48348
4.29	4.49434
4.3	4.45124
4.31	4.45026
4.32	4.47427
4.33	4.51177
4.34	4.49763
4.35	4.49335
4.36	4.51704
4.37	4.48282
4.38	4.45322
4.39	4.47921
4.4	4.46539
4.41	4.4871
4.42	4.5019
4.43	4.45585
4.44	4.43118
4.45	4.47296
4.46	4.45453
4.47	4.48546
4.48	4.47296
4.49	4.4496
4.5	4.4598
4.51	4.42427
4.52	4.42328
4.53	4.44467
4.54	4.41934
4.55	4.44499
4.56	4.50223
4.57	4.49072
4.58	4.4848
4.59	4.46901
4.6	4.45881
4.61	4.45157
4.62	4.49204
4.63	4.46375
4.64	4.44993
4.65	4.44796
4.66	4.46605
4.67	4.45947
4.68	4.43907
4.69	4.42098
4.7	4.44631
4.71	4.48315
4.72	4.43973
4.73	4.44302
4.74	4.42295
4.75	4.45256
4.76	4.46078
4.77	4.47986
4.78	4.45223
4.79	4.47296
4.8	4.45355
4.81	4.46868
4.82	4.45486
4.83	4.45585
4.84	4.44532
4.85	4.43249
4.86	4.42065
4.87	4.41769
4.88	4.39598
4.89	4.41638
4.9	4.42164
4.91	4.43151
4.92	4.39762
4.93	4.4269
4.94	4.42098
4.95	4.41703
4.96	4.42855
4.97	4.41407
4.98	4.45256
4.99	4.46013
5	4.4246
5.01	4.41605
5.02	4.42295
5.03	4.39697
5.04	4.43118
5.05	4.41966
5.06	4.41934
5.07	4.41243
5.08	4.42065
5.09	4.37657
5.1	4.41638
5.11	4.41013
5.12	4.39269
5.13	4.3996
5.14	4.39565
5.15	4.45618
5.16	4.40716
5.17	4.38447
5.18	4.39434
5.19	4.39105
5.2	4.35552
5.21	4.42394
5.22	4.41638
5.23	4.36802
5.24	4.39795
5.25	4.40585
5.26	4.37164
5.27	4.41276
5.28	4.43611
5.29	4.43677
5.3	4.39927
5.31	4.37986
5.32	4.38282
5.33	4.40322
5.34	4.42098
5.35	4.43776
5.36	4.41177
5.37	4.3644
5.38	4.37789
5.39	4.39993
5.4	4.41276
5.41	4.40782
5.42	4.42098
5.43	4.40289
5.44	4.40256
5.45	4.40651
5.46	4.39434
5.47	4.39105
5.48	4.3973
5.49	4.40552
5.5	4.37855
5.51	4.40749
5.52	4.41276
5.53	4.39565
5.54	4.36111
5.55	4.41243
5.56	4.34466
5.57	4.36341
5.58	4.36604
5.59	4.3746
5.6	4.38874
5.61	4.40091
5.62	4.41309
5.63	4.42723
5.64	4.40355
5.65	4.45552
5.66	4.45092
5.67	4.38052
5.68	4.36637
5.69	4.39269
5.7	4.38545
5.71	4.38414
5.72	4.42065
5.73	4.38249
5.74	4.39828
5.75	4.36637
5.76	4.40256
5.77	4.4223
5.78	4.38841
5.79	4.34861
5.8	4.42065
5.81	4.40749
5.82	4.42328
5.83	4.36276
5.84	4.38151
5.85	4.41736
5.86	4.35387
5.87	4.36374
5.88	4.36276
5.89	4.34927
5.9	4.36835
5.91	4.35618
5.92	4.33512
5.93	4.35519
5.94	4.33677
5.95	4.33118
5.96	4.37427
5.97	4.36966
5.98	4.39335
5.99	4.33381
6	4.36506
6.01	4.4042
6.02	4.40256
6.03	4.37493
6.04	4.40059
6.05	4.38381
6.06	4.40026
6.07	4.38151
6.08	4.37164
6.09	4.38085
6.1	4.40881
6.11	4.38151
6.12	4.35354
6.13	4.34894
6.14	4.36276
6.15	4.37131
6.16	4.32887
6.17	4.35025
6.18	4.3644
6.19	4.32986
6.2	4.34302
6.21	4.36999
6.22	4.35157
6.23	4.3519
6.24	4.31473
6.25	4.34532
6.26	4.37953
6.27	4.37493
6.28	4.33512
6.29	4.30453
6.3	4.33085
6.31	4.319
6.32	4.34104
6.33	4.30453
6.34	4.34927
6.35	4.40585
6.36	4.37427
6.37	4.33973
6.38	4.30782
6.39	4.32196
6.4	4.35947
6.41	4.33348
6.42	4.35979
6.43	4.39401
6.44	4.34664
6.45	4.3644
6.46	4.32591
6.47	4.3621
6.48	4.34466
6.49	4.32032
6.5	4.33019
6.51	4.35618
6.52	4.33446
6.53	4.3746
6.54	4.32624
6.55	4.35289
6.56	4.29367
6.57	4.33644
6.58	4.33183
6.59	4.29302
6.6	4.35618
6.61	4.34664
6.62	4.30815
6.63	4.31111
6.64	4.32131
6.65	4.33545
6.66	4.33578
6.67	4.3315
6.68	4.3371
6.69	4.35124
6.7	4.33743
6.71	4.27986
6.72	4.32887
6.73	4.31473
6.74	4.29367
6.75	4.33282
6.76	4.33973
6.77	4.3315
6.78	4.33085
6.79	4.30782
6.8	4.28907
6.81	4.3246
6.82	4.36933
6.83	4.33414
6.84	4.34828
6.85	4.31144
6.86	4.29729
6.87	4.33052
6.88	4.3167
6.89	4.3371
6.9	4.33644
6.91	4.34828
6.92	4.33118
6.93	4.33611
6.94	4.31999
6.95	4.31539
6.96	4.31242
6.97	4.32262
6.98	4.34795
6.99	4.34762
7	4.3065
7.01	4.30881
7.02	4.32986
7.03	4.31012
7.04	4.30552
7.05	4.32196
7.06	4.294
7.07	4.31999
7.08	4.28775
7.09	4.32789
7.1	4.30288
7.11	4.31867
7.12	4.32196
7.13	4.32328
7.14	4.32262
7.15	4.27821
7.16	4.30979
7.17	4.30552
7.18	4.30815
7.19	4.29598
7.2	4.29499
7.21	4.30091
7.22	4.31835
7.23	4.29433
7.24	4.29565
7.25	4.25946
7.26	4.25058
7.27	4.28413
7.28	4.25223
7.29	4.28578
7.3	4.31539
7.31	4.31012
7.32	4.26637
7.33	4.28709
7.34	4.28677
7.35	4.29894
7.36	4.28052
7.37	4.27624
7.38	4.25946
7.39	4.29137
7.4	4.29203
7.41	4.30914
7.42	4.32756
7.43	4.32361
7.44	4.26703
7.45	4.24992
7.46	4.26571
7.47	4.27854
7.48	4.27657
7.49	4.25453
7.5	4.269
7.51	4.31242
7.52	4.30486
7.53	4.25519
7.54	4.27196
7.55	4.28183
7.56	4.29828
7.57	4.31539
7.58	4.30157
7.59	4.32098
7.6	4.30025
7.61	4.30683
7.62	4.32821
7.63	4.29729
7.64	4.26505
7.65	4.25091
7.66	4.27427
7.67	4.24992
7.68	4.27459
7.69	4.27788
7.7	4.28545
7.71	4.29466
7.72	4.31374
7.73	4.28282
7.74	4.2894
7.75	4.29269
7.76	4.28381
7.77	4.25979
7.78	4.25058
7.79	4.28413
7.8	4.24926
7.81	4.25552
7.82	4.2894
7.83	4.26177
7.84	4.31637
7.85	4.27098
7.86	4.27624
7.87	4.26933
7.88	4.27986
7.89	4.26933
7.9	4.27756
7.91	4.28611
7.92	4.26571
7.93	4.2917
7.94	4.29565
7.95	4.26341
7.96	4.24433
7.97	4.27591
7.98	4.27032
7.99	4.28019
8	4.31407
8.01	4.27986
8.02	4.26242
8.03	4.23216
8.04	4.28644
8.05	4.28775
8.06	4.27032
8.07	4.28874
8.08	4.28282
8.09	4.27065
8.1	4.27624
8.11	4.28183
8.12	4.27229
8.13	4.2713
8.14	4.29071
8.15	4.26209
8.16	4.25387
8.17	4.29203
8.18	4.29894
8.19	4.31111
8.2	4.27558
8.21	4.28019
8.22	4.27953
8.23	4.27163
8.24	4.28611
8.25	4.25584
8.26	4.2667
8.27	4.27986
8.28	4.28282
8.29	4.22986
8.3	4.26736
8.31	4.30025
8.32	4.26407
8.33	4.24499
8.34	4.26242
8.35	4.244
8.36	4.23775
8.37	4.23183
8.38	4.27756
8.39	4.24992
8.4	4.24466
8.41	4.25552
8.42	4.219
8.43	4.23808
8.44	4.23676
8.45	4.23216
8.46	4.25913
8.47	4.28479
8.48	4.25617
8.49	4.23578
8.5	4.19005
8.51	4.20815
8.52	4.2065
8.53	4.22854
8.54	4.20584
8.55	4.26374
8.56	4.2588
8.57	4.25091
8.58	4.23578
8.59	4.2417
8.6	4.23578
8.61	4.23347
8.62	4.20815
8.63	4.23216
8.64	4.22854
8.65	4.22591
8.66	4.22361
8.67	4.23282
8.68	4.25354
8.69	4.23578
8.7	4.26637
8.71	4.28084
8.72	4.22986
8.73	4.22492
8.74	4.24598
8.75	4.25288
8.76	4.23051
8.77	4.24565
8.78	4.23446
8.79	4.22788
8.8	4.28052
8.81	4.22986
8.82	4.23019
8.83	4.26242
8.84	4.23315
8.85	4.20551
8.86	4.21538
8.87	4.23611
8.88	4.26637
8.89	4.25946
8.9	4.20617
8.91	4.23808
8.92	4.27196
8.93	4.24104
8.94	4.27065
8.95	4.2042
8.96	4.22986
8.97	4.23084
8.98	4.21407
8.99	4.21933
9	4.21111
9.01	4.19893
9.02	4.2463
9.03	4.21078
9.04	4.21275
9.05	4.24104
9.06	4.23512
9.07	4.22558
9.08	4.23315
9.09	4.21966
9.1	4.21111
9.11	4.19203
9.12	4.23545
9.13	4.25552
9.14	4.22065
9.15	4.25946
9.16	4.26078
9.17	4.20847
9.18	4.22426
9.19	4.22986
9.2	4.24071
9.21	4.23808
9.22	4.24071
9.23	4.20486
9.24	4.20354
9.25	4.23282
9.26	4.25519
9.27	4.24795
9.28	4.23808
9.29	4.21176
9.3	4.21505
9.31	4.19597
9.32	4.24795
9.33	4.23841
9.34	4.2269
9.35	4.24696
9.36	4.18676
9.37	4.18018
9.38	4.20847
9.39	4.22361
9.4	4.20124
9.41	4.19861
9.42	4.21472
9.43	4.25387
9.44	4.23084
9.45	4.219
9.46	4.21604
9.47	4.22722
9.48	4.18117
9.49	4.15781
9.5	4.20716
9.51	4.21736
9.52	4.23446
9.53	4.19926
9.54	4.18742
9.55	4.22361
9.56	4.23973
9.57	4.2042
9.58	4.24137
9.59	4.26242
9.6	4.25749
9.61	4.2213
9.62	4.19959
9.63	4.18314
9.64	4.19236
9.65	4.22361
9.66	4.21242
9.67	4.21637
9.68	4.22394
9.69	4.21143
9.7	4.21933
9.71	4.23479
9.72	4.2167
9.73	4.21407
9.74	4.20222
9.75	4.19663
9.76	4.20749
9.77	4.18117
9.78	4.20815
9.79	4.23644
9.8	4.23183
9.81	4.21999
9.82	4.21933
9.83	4.21209
9.84	4.2167
9.85	4.21341
9.86	4.23413
9.87	4.18841
9.88	4.1667
9.89	4.15814
9.9	4.20124
9.91	4.21045
9.92	4.22262
9.93	4.21867
9.94	4.20584
9.95	4.15321
9.96	4.18183
9.97	4.20453
9.98	4.19532
9.99	4.19301
10	4.19334
10.01	4.23019
10.02	4.24301
10.03	4.20946
10.04	4.17689
10.05	4.20683
10.06	4.22097
10.07	4.17591
10.08	4.16439
10.09	4.16439
10.1	4.16341
10.11	4.18216
10.12	4.23907
10.13	4.23282
10.14	4.19663
10.15	4.19532
10.16	4.15847
10.17	4.16966
10.18	4.2292
10.19	4.17985
10.2	4.1838
10.21	4.19696
10.22	4.20321
10.23	4.15025
10.24	4.18018
10.25	4.17657
10.26	4.19334
10.27	4.21571
10.28	4.21242
10.29	4.20979
10.3	4.20157
10.31	4.22032
10.32	4.19893
10.33	4.18676
10.34	4.15452
10.35	4.17196
10.36	4.18084
10.37	4.15847
10.38	4.18413
10.39	4.16966
10.4	4.18545
10.41	4.20387
10.42	4.20749
10.43	4.23019
10.44	4.2042
10.45	4.19071
10.46	4.16472
10.47	4.19301
10.48	4.18907
10.49	4.13939
10.5	4.18841
10.51	4.17328
10.52	4.16209
10.53	4.18018
10.54	4.19663
10.55	4.18643
10.56	4.14827
10.57	4.20453
10.58	4.21407
10.59	4.18578
10.6	4.18742
10.61	4.15156
10.62	4.19893
10.63	4.18216
10.64	4.1861
10.65	4.20946
10.66	4.19729
10.67	4.15781
10.68	4.18314
10.69	4.14926
10.7	4.14696
10.71	4.15255
10.72	4.13874
10.73	4.16538
10.74	4.16143
10.75	4.19597
10.76	4.13216
10.77	4.15156
10.78	4.14696
10.79	4.1792
10.8	4.20551
10.81	4.15946
10.82	4.19828
10.83	4.18413
10.84	4.15946
10.85	4.20189
10.86	4.20913
10.87	4.19828
10.88	4.19499
10.89	4.15946
10.9	4.17788
10.91	4.17953
10.92	4.18545
10.93	4.15617
10.94	4.18117
10.95	4.15551
10.96	4.18709
10.97	4.10683
10.98	4.12722
10.99	4.17657
11	4.17558
11.01	4.17229
11.02	4.1611
11.03	4.20091
11.04	4.18512
11.05	4.13709
11.06	4.16275
11.07	4.17525
11.08	4.15354
11.09	4.15979
11.1	4.16966
11.11	4.19926
11.12	4.21143
11.13	4.18742
11.14	4.17953
11.15	4.18117
11.16	4.17953
11.17	4.1838
11.18	4.194
11.19	4.18347
11.2	4.17953
11.21	4.18282
11.22	4.14499
11.23	4.17097
11.24	4.17393
11.25	4.18249
11.26	4.1417
11.27	4.17953
11.28	4.17064
11.29	4.17722
11.3	4.15683
11.31	4.19564
11.32	4.19071
11.33	4.19696
11.34	4.16143
11.35	4.19926
11.36	4.16505
11.37	4.13347
11.38	4.17295
11.39	4.14795
11.4	4.1542
11.41	4.19828
11.42	4.1667
11.43	4.13874
11.44	4.16045
11.45	4.1667
11.46	4.15814
11.47	4.18347
11.48	4.1542
11.49	4.15584
11.5	4.16308
11.51	4.12854
11.52	4.18282
11.53	4.15814
11.54	4.12031
11.55	4.17953
11.56	4.1736
11.57	4.17624
11.58	4.16012
11.59	4.18347
11.6	4.17722
11.61	4.1792
11.62	4.12558
11.63	4.18051
11.64	4.19005
11.65	4.17689
11.66	4.19236
11.67	4.19203
11.68	4.17985
11.69	4.14531
11.7	4.19663
11.71	4.18775
11.72	4.15946
11.73	4.1338
11.74	4.13018
11.75	4.15979
11.76	4.15321
11.77	4.16867
11.78	4.15781
11.79	4.12656
11.8	4.13643
11.81	4.15551
11.82	4.17295
11.83	4.20025
11.84	4.18216
11.85	4.19499
11.86	4.16341
11.87	4.13577
11.88	4.1838
11.89	4.15288
11.9	4.15255
11.91	4.15749
11.92	4.16801
11.93	4.12097
11.94	4.13906
11.95	4.13545
11.96	4.1542
11.97	4.15781
11.98	4.1417
11.99	4.1338
12	4.15716
12.01	4.16966
12.02	4.119
12.03	4.15749
12.04	4.13709
12.05	4.13775
12.06	4.16604
12.07	4.17229
12.08	4.16637
12.09	4.13347
12.1	4.17722
12.11	4.1838
12.12	4.15847
12.13	4.17196
12.14	4.15025
12.15	4.16439
12.16	4.16045
12.17	4.12196
12.18	4.13018
12.19	4.11768
12.2	4.1486
12.21	4.13413
12.22	4.14466
12.23	4.14104
12.24	4.13248
12.25	4.11933
12.26	4.1361
12.27	4.10255
12.28	4.12492
12.29	4.12097
12.3	4.12163
12.31	4.13512
12.32	4.16505
12.33	4.12755
12.34	4.1213
12.35	4.15847
12.36	4.11637
12.37	4.12426
12.38	4.09696
12.39	4.21275
12.4	4.19137
12.41	4.16209
12.42	4.1736
12.43	4.12262
12.44	4.12623
12.45	4.13281
12.46	4.13874
12.47	4.12327
12.48	4.16933
12.49	4.1361
12.5	4.11998
12.51	4.12492
12.52	4.12985
12.53	4.13347
12.54	4.10518
12.55	4.08248
12.56	4.10847
12.57	4.13446
12.58	4.12952
12.59	4.11702
12.6	4.14334
12.61	4.11834
12.62	4.18051
12.63	4.14071
12.64	4.11209
12.65	4.14137
12.66	4.15617
12.67	4.13084
12.68	4.16571
12.69	4.1417
12.7	4.16242
12.71	4.12196
12.72	4.13281
12.73	4.16703
12.74	4.12591
12.75	4.11735
12.76	4.12854
12.77	4.14762
12.78	4.15584
12.79	4.11933
12.8	4.10617
12.81	4.10847
12.82	4.10814
12.83	4.144
12.84	4.16834
12.85	4.11637
12.86	4.14992
12.87	4.11637
12.88	4.119
12.89	4.10913
12.9	4.13183
12.91	4.12229
12.92	4.13775
12.93	4.17229
12.94	4.12426
12.95	4.14137
12.96	4.13347
12.97	4.08873
12.98	4.1009
12.99	4.12887
13	4.12525
13.01	4.09762
13.02	4.13248
13.03	4.13742
13.04	4.15946
13.05	4.11472
13.06	4.14104
13.07	4.11143
13.08	4.06768
13.09	4.11242
13.1	4.11637
13.11	4.11209
13.12	4.11966
13.13	4.14827
13.14	4.1236
13.15	4.13314
13.16	4.16472
13.17	4.12262
13.18	4.13479
13.19	4.13545
13.2	4.11801
13.21	4.10419
13.22	4.10419
13.23	4.12393
13.24	4.14466
13.25	4.12426
13.26	4.09005
13.27	4.0759
13.28	4.11275
13.29	4.12426
13.3	4.11012
13.31	4.09169
13.32	4.11373
13.33	4.08215
13.34	4.11209
13.35	4.1065
13.36	4.15255
13.37	4.11669
13.38	4.09498
13.39	4.13972
13.4	4.08775
13.41	4.08939
13.42	4.10683
13.43	4.10189
13.44	4.13183
13.45	4.11209
13.46	4.13347
13.47	4.12097
13.48	4.1088
13.49	4.12262
13.5	4.14071
13.51	4.1292
13.52	4.09762
13.53	4.11242
13.54	4.13709
13.55	4.11308
13.56	4.12262
13.57	4.11209
13.58	4.10025
13.59	4.11834
13.6	4.11275
13.61	4.10189
13.62	4.09071
13.63	4.12163
13.64	4.10452
13.65	4.14202
13.66	4.144
13.67	4.13676
13.68	4.11966
13.69	4.10781
13.7	4.08051
13.71	4.09367
13.72	4.10123
13.73	4.11998
13.74	4.10913
