"BIO-KINE ASCII FILE"
"_COMMENT"	"MOS-500 Spectrometer"
"_COMMENT"	"Kinetics measurement"
"_COMMENT"	"Y Unit : Volt,  X Unit : s"
"_COMMENT"	"Excitation wavelength : 380 nm"
"_COMMENT"	"Fentes bandwidth =  1 nm"
"_COMMENT"	"HV= 850V"
"_COMMENT"	"Timebase  1 =  .01 s   3001 pts"
"_SFM"	"SFM-400 /S  Advanced mode"
"_SFM"	"Ratio : S1: 2.5, S2: 0, S3: 0, S4: 1"
"_SFM"	"Content : S1: , S2: , S3: , S4:"
"_SFM"	"Concentration : S1: , S2: , S3: , S4:"
"_SFM"	"Total volume : 209 µl  Flow : 3.5 mL/s"
"_SFM"	"Acquisition start :  10 ms before stop"
"_SFM"	"cuve=FC-15, s1=10 ml , s2=10 ml , s3=10 ml , s4=1.9 ml"
"_UNITX"	"s"
"_UNITY"	"Volt"
"_DELTAX"	0
"_DATA"
1e-300	5.22133
0.01	6.16182
0.02	6.89737
0.03	7.00856
0.04	6.93388
0.05	6.94902
0.06	6.95
0.07	6.93948
0.08	6.94671
0.09	6.9454
0.1	6.93125
0.11	6.96513
0.12	6.95987
0.13	6.93684
0.14	6.9454
0.15	6.91842
0.16	6.95461
0.17	6.94704
0.18	6.95823
0.19	6.95921
0.2	6.94244
0.21	6.93026
0.22	6.94441
0.23	6.94474
0.24	6.94309
0.25	6.94869
0.26	6.92961
0.27	6.95757
0.28	6.9477
0.29	6.8954
0.3	6.91612
0.31	6.88586
0.32	6.89079
0.33	6.91678
0.34	6.88783
0.35	6.89474
0.36	6.91776
0.37	6.89803
0.38	6.8671
0.39	6.89704
0.4	6.88355
0.41	6.90296
0.42	6.86974
0.43	6.86283
0.44	6.86283
0.45	6.83487
0.46	6.8523
0.47	6.8546
0.48	6.83256
0.49	6.81381
0.5	6.84276
0.51	6.82697
0.52	6.82927
0.53	6.84243
0.54	6.84375
0.55	6.8125
0.56	6.81316
0.57	6.81349
0.58	6.81677
0.59	6.80526
0.6	6.80625
0.61	6.7921
0.62	6.82237
0.63	6.81776
0.64	6.77039
0.65	6.78289
0.66	6.78717
0.67	6.77796
0.68	6.7773
0.69	6.7694
0.7	6.76315
0.71	6.75526
0.72	6.75592
0.73	6.76579
0.74	6.76677
0.75	6.7444
0.76	6.73256
0.77	6.73486
0.78	6.73947
0.79	6.73289
0.8	6.72467
0.81	6.69901
0.82	6.73684
0.83	6.70789
0.84	6.67467
0.85	6.68552
0.86	6.68519
0.87	6.69046
0.88	6.69243
0.89	6.67927
0.9	6.68421
0.91	6.70296
0.92	6.68388
0.93	6.66743
0.94	6.68585
0.95	6.68749
0.96	6.68453
0.97	6.65526
0.98	6.66052
0.99	6.66578
1	6.64901
1.01	6.64243
1.02	6.65822
1.03	6.63486
1.04	6.6342
1.05	6.6296
1.06	6.61249
1.07	6.6194
1.08	6.59539
1.09	6.58519
1.1	6.58716
1.11	6.59177
1.12	6.58157
1.13	6.5967
1.14	6.57993
1.15	6.56381
1.16	6.56578
1.17	6.55493
1.18	6.5796
1.19	6.57104
1.2	6.53256
1.21	6.55558
1.22	6.53387
1.23	6.52565
1.24	6.54769
1.25	6.54407
1.26	6.54045
1.27	6.51677
1.28	6.52367
1.29	6.5342
1.3	6.49045
1.31	6.48157
1.32	6.5171
1.33	6.52598
1.34	6.47959
1.35	6.48716
1.36	6.53058
1.37	6.52729
1.38	6.50065
1.39	6.49111
1.4	6.46051
1.41	6.4944
1.42	6.46019
1.43	6.46183
1.44	6.4842
1.45	6.49045
1.46	6.47269
1.47	6.46742
1.48	6.45821
1.49	6.44834
1.5	6.44736
1.51	6.43749
1.52	6.45887
1.53	6.42597
1.54	6.42367
1.55	6.42992
1.56	6.41545
1.57	6.3888
1.58	6.40887
1.59	6.38716
1.6	6.41051
1.61	6.39801
1.62	6.41775
1.63	6.38485
1.64	6.39801
1.65	6.37334
1.66	6.34308
1.67	6.38584
1.68	6.37433
1.69	6.35854
1.7	6.349
1.71	6.33847
1.72	6.34209
1.73	6.33124
1.74	6.31939
1.75	6.33683
1.76	6.35492
1.77	6.32202
1.78	6.32071
1.79	6.32926
1.8	6.33354
1.81	6.31084
1.82	6.31051
1.83	6.29637
1.84	6.2888
1.85	6.27794
1.86	6.30262
1.87	6.31117
1.88	6.28321
1.89	6.26577
1.9	6.24702
1.91	6.28222
1.92	6.26709
1.93	6.26544
1.94	6.24669
1.95	6.21873
1.96	6.27729
1.97	6.2661
1.98	6.23847
1.99	6.22202
2	6.22005
2.01	6.21676
2.02	6.22334
2.03	6.23353
2.04	6.18057
2.05	6.18913
2.06	6.19505
2.07	6.18945
2.08	6.1809
2.09	6.17432
2.1	6.16347
2.11	6.18748
2.12	6.22103
2.13	6.18814
2.14	6.16906
2.15	6.19176
2.16	6.16084
2.17	6.14373
2.18	6.15656
2.19	6.14702
2.2	6.12169
2.21	6.15294
2.22	6.16544
2.23	6.14472
2.24	6.14241
2.25	6.12169
2.26	6.11544
2.27	6.11741
2.28	6.11972
2.29	6.11314
2.3	6.11807
2.31	6.11314
2.32	6.09373
2.33	6.0911
2.34	6.0855
2.35	6.08419
2.36	6.08156
2.37	6.07465
2.38	6.07596
2.39	6.08419
2.4	6.07991
2.41	6.07564
2.42	6.06478
2.43	6.05721
2.44	6.04373
2.45	6.05195
2.46	6.05853
2.47	6.04833
2.48	6.03057
2.49	6.04142
2.5	6.02958
2.51	6.03879
2.52	6.04011
2.53	6.04669
2.54	6.03057
2.55	6.00228
2.56	6.0059
2.57	5.9957
2.58	5.9934
2.59	5.98649
2.6	6.02596
2.61	5.99109
2.62	6.00491
2.63	5.99307
2.64	5.9934
2.65	5.99076
2.66	5.98451
2.67	5.98978
2.68	5.99537
2.69	5.98188
2.7	5.93945
2.71	5.93484
2.72	5.94932
2.73	5.95359
2.74	5.94636
2.75	5.95293
2.76	5.92037
2.77	5.90688
2.78	5.89734
2.79	5.91149
2.8	5.91807
2.81	5.92695
2.82	5.923
2.83	5.91083
2.84	5.89668
2.85	5.89339
2.86	5.89668
2.87	5.88089
2.88	5.88056
2.89	5.89438
2.9	5.9082
2.91	5.89734
2.92	5.88385
2.93	5.87333
2.94	5.86642
2.95	5.86806
2.96	5.86148
2.97	5.87037
2.98	5.84866
2.99	5.83385
3	5.86971
3.01	5.86708
3.02	5.848
3.03	5.83023
3.04	5.83583
3.05	5.81642
3.06	5.85195
3.07	5.83287
3.08	5.86148
3.09	5.86971
3.1	5.82267
3.11	5.81938
3.12	5.80721
3.13	5.81839
3.14	5.81543
3.15	5.7753
3.16	5.79865
3.17	5.78977
3.18	5.78648
3.19	5.80161
3.2	5.78418
3.21	5.77135
3.22	5.7924
3.23	5.78813
3.24	5.78582
3.25	5.78582
3.26	5.78254
3.27	5.73286
3.28	5.7549
3.29	5.7526
3.3	5.75852
3.31	5.76346
3.32	5.76642
3.33	5.76313
3.34	5.74964
3.35	5.75063
3.36	5.74865
3.37	5.73188
3.38	5.7253
3.39	5.73747
3.4	5.74438
3.41	5.72299
3.42	5.70457
3.43	5.70161
3.44	5.6878
3.45	5.7128
3.46	5.7072
3.47	5.67332
3.48	5.68352
3.49	5.69997
3.5	5.68286
3.51	5.68911
3.52	5.66543
3.53	5.65358
3.54	5.66279
3.55	5.67266
3.56	5.6549
3.57	5.66608
3.58	5.65622
3.59	5.64602
3.6	5.64108
3.61	5.6424
3.62	5.647
3.63	5.6322
3.64	5.61477
3.65	5.62628
3.66	5.63516
3.67	5.62628
3.68	5.62793
3.69	5.62431
3.7	5.62595
3.71	5.59898
3.72	5.58385
3.73	5.59832
3.74	5.60983
3.75	5.6049
3.76	5.63023
3.77	5.59404
3.78	5.55786
3.79	5.58319
3.8	5.6095
3.81	5.55391
3.82	5.57628
3.83	5.61049
3.84	5.58088
3.85	5.57463
3.86	5.59108
3.87	5.57694
3.88	5.53845
3.89	5.54634
3.9	5.56871
3.91	5.56838
3.92	5.54437
3.93	5.52924
3.94	5.52726
3.95	5.52529
3.96	5.53944
3.97	5.5572
3.98	5.52661
3.99	5.5118
4	5.50457
4.01	5.51674
4.02	5.52463
4.03	5.52496
4.04	5.50193
4.05	5.5095
4.06	5.48943
4.07	5.48812
4.08	5.49141
4.09	5.47562
4.1	5.49371
4.11	5.47529
4.12	5.49009
4.13	5.48187
4.14	5.47924
4.15	5.47661
4.16	5.46904
4.17	5.46213
4.18	5.45193
4.19	5.48318
4.2	5.46279
4.21	5.45983
4.22	5.44141
4.23	5.44897
4.24	5.447
4.25	5.44075
4.26	5.44831
4.27	5.43483
4.28	5.43351
4.29	5.42068
4.3	5.41016
4.31	5.40983
4.32	5.4016
4.33	5.41081
4.34	5.40292
4.35	5.40785
4.36	5.40292
4.37	5.4118
4.38	5.40391
4.39	5.40029
4.4	5.40687
4.41	5.39239
4.42	5.41246
4.43	5.39272
4.44	5.39305
4.45	5.36838
4.46	5.38483
4.47	5.38187
4.48	5.38647
4.49	5.34634
4.5	5.3493
4.51	5.34042
4.52	5.35094
4.53	5.35061
4.54	5.36706
4.55	5.34404
4.56	5.34831
4.57	5.34963
4.58	5.33417
4.59	5.34568
4.6	5.35456
4.61	5.32594
4.62	5.34897
4.63	5.33779
4.64	5.31673
4.65	5.30292
4.66	5.30621
4.67	5.31048
4.68	5.32496
4.69	5.31969
4.7	5.32331
4.71	5.28647
4.72	5.30949
4.73	5.31838
4.74	5.30061
4.75	5.30423
4.76	5.27561
4.77	5.26114
4.78	5.28844
4.79	5.26541
4.8	5.26607
4.81	5.28384
4.82	5.26969
4.83	5.2789
4.84	5.26772
4.85	5.25127
4.86	5.23811
4.87	5.25752
4.88	5.27166
4.89	5.26607
4.9	5.25587
4.91	5.25423
4.92	5.24995
4.93	5.2391
4.94	5.22528
4.95	5.25818
4.96	5.2391
4.97	5.26081
4.98	5.24239
4.99	5.22923
5	5.21147
5.01	5.22397
5.02	5.23515
5.03	5.20423
5.04	5.20686
5.05	5.22989
5.06	5.20094
5.07	5.19995
5.08	5.18449
5.09	5.19436
5.1	5.20258
5.11	5.17923
5.12	5.18449
5.13	5.19502
5.14	5.16048
5.15	5.19041
5.16	5.19633
5.17	5.19041
5.18	5.18745
5.19	5.17232
5.2	5.17791
5.21	5.17627
5.22	5.17133
5.23	5.17396
5.24	5.18614
5.25	5.17199
5.26	5.16048
5.27	5.15094
5.28	5.14271
5.29	5.11245
5.3	5.1414
5.31	5.171
5.32	5.16114
5.33	5.15225
5.34	5.14074
5.35	5.146
5.36	5.14206
5.37	5.12298
5.38	5.13975
5.39	5.13778
5.4	5.13482
5.41	5.14436
5.42	5.11771
5.43	5.12791
5.44	5.09041
5.45	5.12034
5.46	5.10752
5.47	5.08876
5.48	5.09469
5.49	5.11475
5.5	5.12034
5.51	5.09041
5.52	5.07297
5.53	5.07528
5.54	5.096
5.55	5.10587
5.56	5.08482
5.57	5.06179
5.58	5.08844
5.59	5.09995
5.6	5.09633
5.61	5.0483
5.62	5.06442
5.63	5.05587
5.64	5.06376
5.65	5.05686
5.66	5.07594
5.67	5.06015
5.68	5.02528
5.69	5.05159
5.7	5.0562
5.71	5.03416
5.72	5.03811
5.73	5.03153
5.74	5.05653
5.75	5.06705
5.76	5.04107
5.77	5.03712
5.78	5.03482
5.79	5.03251
5.8	5.03712
5.81	5.02396
5.82	5.02396
5.83	5.02166
5.84	5.02297
5.85	4.99633
5.86	4.99139
5.87	4.99468
5.88	4.99896
5.89	5.00521
5.9	5.01245
5.91	5.00028
5.92	4.99106
5.93	4.99238
5.94	4.99435
5.95	4.99205
5.96	4.97067
5.97	4.9756
5.98	4.97593
5.99	4.98416
6	4.96179
6.01	4.96014
6.02	4.95981
6.03	4.94402
6.04	4.95883
6.05	4.96014
6.06	4.9812
6.07	4.98547
6.08	4.99008
6.09	4.98909
6.1	4.9358
6.11	4.9506
6.12	4.95718
6.13	4.95883
6.14	4.96771
6.15	4.94633
6.16	4.95159
6.17	4.93284
6.18	4.93909
6.19	4.93942
6.2	4.91804
6.21	4.92034
6.22	4.91968
6.23	4.92461
6.24	4.92231
6.25	4.91705
6.26	4.91639
6.27	4.91771
6.28	4.89534
6.29	4.90093
6.3	4.91771
6.31	4.91573
6.32	4.896
6.33	4.89731
6.34	4.91836
6.35	4.90126
6.36	4.92659
6.37	4.9006
6.38	4.89205
6.39	4.89731
6.4	4.88021
6.41	4.9006
6.42	4.89929
6.43	4.91211
6.44	4.87494
6.45	4.87198
6.46	4.86639
6.47	4.87626
6.48	4.89369
6.49	4.85915
6.5	4.88053
6.51	4.85915
6.52	4.87198
6.53	4.86474
6.54	4.85652
6.55	4.86442
6.56	4.83547
6.57	4.85422
6.58	4.86178
6.59	4.83086
6.6	4.83744
6.61	4.81441
6.62	4.82889
6.63	4.82231
6.64	4.8381
6.65	4.84895
6.66	4.8483
6.67	4.82757
6.68	4.82198
6.69	4.83284
6.7	4.82132
6.71	4.83119
6.72	4.81935
6.73	4.82362
6.74	4.83218
6.75	4.83349
6.76	4.80652
6.77	4.81869
6.78	4.80586
6.79	4.81507
6.8	4.80191
6.81	4.77297
6.82	4.79204
6.83	4.80849
6.84	4.78349
6.85	4.78843
6.86	4.78218
6.87	4.78185
6.88	4.77757
6.89	4.77593
6.9	4.7552
6.91	4.77132
6.92	4.78941
6.93	4.77231
6.94	4.76869
6.95	4.80191
6.96	4.7802
6.97	4.79402
6.98	4.79007
6.99	4.79994
7	4.81277
7.01	4.78777
7.02	4.76639
7.03	4.76408
7.04	4.76178
7.05	4.77198
7.06	4.75619
7.07	4.77264
7.08	4.74369
7.09	4.77593
7.1	4.74106
7.11	4.75421
7.12	4.7575
7.13	4.74928
7.14	4.74698
7.15	4.73481
7.16	4.73645
7.17	4.75224
7.18	4.7427
7.19	4.7177
7.2	4.73678
7.21	4.74796
7.22	4.73217
7.23	4.72231
7.24	4.71967
7.25	4.71408
7.26	4.71013
7.27	4.70684
7.28	4.71178
7.29	4.71737
7.3	4.72889
7.31	4.72198
7.32	4.69237
7.33	4.71244
7.34	4.70849
7.35	4.70454
7.36	4.7075
7.37	4.72625
7.38	4.71013
7.39	4.6904
7.4	4.6848
7.41	4.66474
7.42	4.70092
7.43	4.69303
7.44	4.67757
7.45	4.69599
7.46	4.68974
7.47	4.68744
7.48	4.68086
7.49	4.67527
7.5	4.67625
7.51	4.67428
7.52	4.68546
7.53	4.67428
7.54	4.69467
7.55	4.66934
7.56	4.67658
7.57	4.67724
7.58	4.68053
7.59	4.68184
7.6	4.6848
7.61	4.6677
7.62	4.67494
7.63	4.66573
7.64	4.64467
7.65	4.67033
7.66	4.66605
7.67	4.64072
7.68	4.65586
7.69	4.66046
7.7	4.64204
7.71	4.63645
7.72	4.63875
7.73	4.63316
7.74	4.63447
7.75	4.61934
7.76	4.64697
7.77	4.63809
7.78	4.645
7.79	4.62987
7.8	4.645
7.81	4.62
7.82	4.62197
7.83	4.62658
7.84	4.63151
7.85	4.63316
7.86	4.62033
7.87	4.62099
7.88	4.61112
7.89	4.64336
7.9	4.63086
7.91	4.60487
7.92	4.60289
7.93	4.61572
7.94	4.60257
7.95	4.62855
7.96	4.63316
7.97	4.61211
7.98	4.59697
7.99	4.60421
8	4.60585
8.01	4.62362
8.02	4.61572
8.03	4.60191
8.04	4.59566
8.05	4.58743
8.06	4.57954
8.07	4.59533
8.08	4.57493
8.09	4.57921
8.1	4.61013
8.11	4.61309
8.12	4.60651
8.13	4.58842
8.14	4.58447
8.15	4.55651
8.16	4.57033
8.17	4.58316
8.18	4.59171
8.19	4.59401
8.2	4.58151
8.21	4.58151
8.22	4.59335
8.23	4.58513
8.24	4.57658
8.25	4.57066
8.26	4.58217
8.27	4.55355
8.28	4.55191
8.29	4.54171
8.3	4.58579
8.31	4.56835
8.32	4.5723
8.33	4.55717
8.34	4.54895
8.35	4.53809
8.36	4.53612
8.37	4.52691
8.38	4.5746
8.39	4.55454
8.4	4.54927
8.41	4.55158
8.42	4.56638
8.43	4.53184
8.44	4.52131
8.45	4.545
8.46	4.55059
8.47	4.53184
8.48	4.53052
8.49	4.53941
8.5	4.52756
8.51	4.53612
8.52	4.53217
8.53	4.51835
8.54	4.53612
8.55	4.53414
8.56	4.53447
8.57	4.51737
8.58	4.53085
8.59	4.52559
8.6	4.52723
8.61	4.53447
8.62	4.54105
8.63	4.52394
8.64	4.51671
8.65	4.5121
8.66	4.51671
8.67	4.51112
8.68	4.51769
8.69	4.51835
8.7	4.51112
8.71	4.51408
8.72	4.50914
8.73	4.51901
8.74	4.51342
8.75	4.51638
8.76	4.51605
8.77	4.50388
8.78	4.495
8.79	4.51112
8.8	4.5019
8.81	4.49829
8.82	4.49105
8.83	4.49796
8.84	4.52164
8.85	4.49533
8.86	4.47493
8.87	4.47526
8.88	4.47954
8.89	4.49039
8.9	4.47888
8.91	4.47
8.92	4.47131
8.93	4.4723
8.94	4.44927
8.95	4.45322
8.96	4.4871
8.97	4.48151
8.98	4.46967
8.99	4.48447
9	4.49533
9.01	4.45092
9.02	4.46144
9.03	4.46802
9.04	4.4644
9.05	4.47723
9.06	4.46605
9.07	4.44598
9.08	4.46342
9.09	4.45782
9.1	4.46835
9.11	4.46703
9.12	4.46243
9.13	4.45355
9.14	4.44828
9.15	4.45289
9.16	4.45388
9.17	4.4644
9.18	4.45651
9.19	4.44861
9.2	4.43973
9.21	4.45322
9.22	4.43414
9.23	4.42394
9.24	4.44236
9.25	4.43677
9.26	4.42986
9.27	4.43315
9.28	4.44796
9.29	4.42065
9.3	4.4371
9.31	4.43874
9.32	4.45552
9.33	4.42361
9.34	4.40322
9.35	4.43315
9.36	4.4223
9.37	4.42328
9.38	4.43381
9.39	4.43907
9.4	4.4394
9.41	4.42822
9.42	4.45092
9.43	4.42394
9.44	4.43249
9.45	4.41966
9.46	4.40322
9.47	4.4144
9.48	4.4167
9.49	4.42164
9.5	4.4167
9.51	4.41572
9.52	4.4371
9.53	4.42427
9.54	4.42361
9.55	4.41966
9.56	4.42098
9.57	4.43217
9.58	4.41045
9.59	4.4167
9.6	4.39795
9.61	4.38644
9.62	4.40716
9.63	4.42592
9.64	4.40716
9.65	4.42822
9.66	4.39466
9.67	4.39664
9.68	4.4269
9.69	4.39927
9.7	4.40519
9.71	4.39137
9.72	4.38447
9.73	4.38118
9.74	4.39072
9.75	4.38841
9.76	4.37526
9.77	4.3871
9.78	4.37361
9.79	4.38776
9.8	4.37756
9.81	4.40059
9.82	4.40387
9.83	4.38907
9.84	4.37295
9.85	4.37986
9.86	4.37526
9.87	4.39302
9.88	4.39236
9.89	4.36078
9.9	4.40716
9.91	4.38249
9.92	4.35453
9.93	4.36177
9.94	4.38315
9.95	4.37591
9.96	4.37855
9.97	4.37756
9.98	4.37591
9.99	4.36506
10	4.36506
10.01	4.36835
10.02	4.37262
10.03	4.38052
10.04	4.35223
10.05	4.35782
10.06	4.36539
10.07	4.36802
10.08	4.33183
10.09	4.35914
10.1	4.35289
10.11	4.34729
10.12	4.36111
10.13	4.34137
10.14	4.36276
10.15	4.34828
10.16	4.33743
10.17	4.35585
10.18	4.34368
10.19	4.36144
10.2	4.36045
10.21	4.34927
10.22	4.35322
10.23	4.36506
10.24	4.34664
10.25	4.34993
10.26	4.34927
10.27	4.33578
10.28	4.32756
10.29	4.33841
10.3	4.33545
10.31	4.33907
10.32	4.32295
10.33	4.32131
10.34	4.33841
10.35	4.3269
10.36	4.31012
10.37	4.33183
10.38	4.33907
10.39	4.35651
10.4	4.33446
10.41	4.3246
10.42	4.32657
10.43	4.34203
10.44	4.3019
10.45	4.31637
10.46	4.3269
10.47	4.32229
10.48	4.31637
10.49	4.33085
10.5	4.34137
10.51	4.32953
10.52	4.31308
10.53	4.30716
10.54	4.31571
10.55	4.32854
10.56	4.32229
10.57	4.30519
10.58	4.29433
10.59	4.31407
10.6	4.31045
10.61	4.28907
10.62	4.3167
10.63	4.29631
10.64	4.30946
10.65	4.3121
10.66	4.30683
10.67	4.28348
10.68	4.31802
10.69	4.3019
10.7	4.29499
10.71	4.30223
10.72	4.30815
10.73	4.29203
10.74	4.30749
10.75	4.31078
10.76	4.32427
10.77	4.30881
10.78	4.32032
10.79	4.31703
10.8	4.30716
10.81	4.30223
10.82	4.30914
10.83	4.31045
10.84	4.31275
10.85	4.31242
10.86	4.29894
10.87	4.30749
10.88	4.31604
10.89	4.29927
10.9	4.29894
10.91	4.29631
10.92	4.28413
10.93	4.29631
10.94	4.27591
10.95	4.30354
10.96	4.30157
10.97	4.28512
10.98	4.30157
10.99	4.3042
11	4.29565
11.01	4.26966
11.02	4.2815
11.03	4.27525
11.04	4.27295
11.05	4.26308
11.06	4.27098
11.07	4.26802
11.08	4.26374
11.09	4.27624
11.1	4.26834
11.11	4.26538
11.12	4.2542
11.13	4.27163
11.14	4.2667
11.15	4.26078
11.16	4.27492
11.17	4.25979
11.18	4.269
11.19	4.28479
11.2	4.26473
11.21	4.26769
11.22	4.27427
11.23	4.25848
11.24	4.25815
11.25	4.25453
11.26	4.28084
11.27	4.26703
11.28	4.2588
11.29	4.26867
11.3	4.26769
11.31	4.2667
11.32	4.26275
11.33	4.269
11.34	4.2713
11.35	4.2644
11.36	4.2713
11.37	4.26341
11.38	4.26407
11.39	4.269
11.4	4.26374
11.41	4.26933
11.42	4.24532
11.43	4.24762
11.44	4.2542
11.45	4.23841
11.46	4.23117
11.47	4.24992
11.48	4.26407
11.49	4.24236
11.5	4.24729
11.51	4.26374
11.52	4.26045
11.53	4.23841
11.54	4.22525
11.55	4.25913
11.56	4.22492
11.57	4.23019
11.58	4.24663
11.59	4.25255
11.6	4.23512
11.61	4.23347
11.62	4.26407
11.63	4.24071
11.64	4.24565
11.65	4.23907
11.66	4.24762
11.67	4.23413
11.68	4.25453
11.69	4.2394
11.7	4.2292
11.71	4.22361
11.72	4.22065
11.73	4.23051
11.74	4.23446
11.75	4.23117
11.76	4.23413
11.77	4.24762
11.78	4.24269
11.79	4.23249
11.8	4.23249
11.81	4.22624
11.82	4.21045
11.83	4.23545
11.84	4.23512
11.85	4.24926
11.86	4.23413
11.87	4.22229
11.88	4.2269
11.89	4.20782
11.9	4.22558
11.91	4.2292
11.92	4.22097
11.93	4.219
11.94	4.22163
11.95	4.23019
11.96	4.22262
11.97	4.22262
11.98	4.21505
11.99	4.2269
12	4.21308
12.01	4.21143
12.02	4.21834
12.03	4.20815
12.04	4.20255
12.05	4.2144
12.06	4.21209
12.07	4.21407
12.08	4.23709
12.09	4.22032
12.1	4.22262
12.11	4.22394
12.12	4.22854
12.13	4.2088
12.14	4.21209
12.15	4.2088
12.16	4.20551
12.17	4.20617
12.18	4.19499
12.19	4.20124
12.2	4.21209
12.21	4.21801
12.22	4.20617
12.23	4.2292
12.24	4.18775
12.25	4.18347
12.26	4.19663
12.27	4.21505
12.28	4.22591
12.29	4.21143
12.3	4.19268
12.31	4.19597
12.32	4.19861
12.33	4.22426
12.34	4.21209
12.35	4.2144
12.36	4.20716
12.37	4.18347
12.38	4.20058
12.39	4.19005
12.4	4.1838
12.41	4.19828
12.42	4.19992
12.43	4.18183
12.44	4.20815
12.45	4.20551
12.46	4.20288
12.47	4.19268
12.48	4.18841
12.49	4.19203
12.5	4.21275
12.51	4.19893
12.52	4.19367
12.53	4.19992
12.54	4.23183
12.55	4.18282
12.56	4.20157
12.57	4.19268
12.58	4.19597
12.59	4.17229
12.6	4.18216
12.61	4.17525
12.62	4.17393
12.63	4.18742
12.64	4.18578
12.65	4.16308
12.66	4.18018
12.67	4.19137
12.68	4.17887
12.69	4.17163
12.7	4.17459
12.71	4.17097
12.72	4.20617
12.73	4.17591
12.74	4.18578
12.75	4.17854
12.76	4.17887
12.77	4.17393
12.78	4.14202
12.79	4.18183
12.8	4.17393
12.81	4.15683
12.82	4.18216
12.83	4.19367
12.84	4.18676
12.85	4.16801
12.86	4.17393
12.87	4.15058
12.88	4.15551
12.89	4.19499
12.9	4.18347
12.91	4.16538
12.92	4.17163
12.93	4.15847
12.94	4.16768
12.95	4.16275
12.96	4.16242
12.97	4.1667
12.98	4.17459
12.99	4.18742
13	4.16406
13.01	4.17887
13.02	4.16801
13.03	4.14729
13.04	4.15124
13.05	4.16012
13.06	4.14926
13.07	4.16505
13.08	4.15288
13.09	4.169
13.1	4.15979
13.11	4.14564
13.12	4.1588
13.13	4.17031
13.14	4.19137
13.15	4.15749
13.16	4.14893
13.17	4.16637
13.18	4.1588
13.19	4.15781
13.2	4.13512
13.21	4.14235
13.22	4.169
13.23	4.15551
13.24	4.15749
13.25	4.14071
13.26	4.14137
13.27	4.15683
13.28	4.15518
13.29	4.15518
13.3	4.15058
13.31	4.15749
13.32	4.14992
13.33	4.13248
13.34	4.1611
13.35	4.15683
13.36	4.13709
13.37	4.13874
13.38	4.13742
13.39	4.14729
13.4	4.14729
13.41	4.15617
13.42	4.15189
13.43	4.15452
13.44	4.15847
13.45	4.15222
13.46	4.14663
13.47	4.13216
13.48	4.13676
13.49	4.16275
13.5	4.16078
13.51	4.15452
13.52	4.15025
13.53	4.13643
13.54	4.13479
13.55	4.1292
13.56	4.13808
13.57	4.14301
13.58	4.14071
13.59	4.14531
13.6	4.13183
13.61	4.13874
13.62	4.13676
13.63	4.14301
13.64	4.15222
13.65	4.12163
13.66	4.13281
13.67	4.13347
13.68	4.13841
13.69	4.14827
13.7	4.12623
13.71	4.13577
13.72	4.11637
13.73	4.13018
13.74	4.144
13.75	4.119
13.76	4.1236
