"BIO-KINE ASCII FILE"
"_COMMENT"	"MOS-500 Spectrometer"
"_COMMENT"	"Kinetics measurement"
"_COMMENT"	"Y Unit : Volt,  X Unit : s"
"_COMMENT"	"Excitation wavelength : 380 nm"
"_COMMENT"	"Fentes bandwidth =  1 nm"
"_COMMENT"	"HV= 850V"
"_COMMENT"	"Timebase  1 =  .01 s   3001 pts"
"_SFM"	"SFM-400 /S  Advanced mode"
"_SFM"	"Ratio : S1: 2.5, S2: 0, S3: 0, S4: 1"
"_SFM"	"Content : S1: , S2: , S3: , S4:"
"_SFM"	"Concentration : S1: , S2: , S3: , S4:"
"_SFM"	"Total volume : 209 µl  Flow : 3.5 mL/s"
"_SFM"	"Acquisition start :  10 ms before stop"
"_SFM"	"cuve=FC-15, s1=10 ml , s2=10 ml , s3=10 ml , s4=1.9 ml"
"_UNITX"	"s"
"_UNITY"	"Volt"
"_DELTAX"	0
"_DATA"
1e-300	7.99378
0.01	8.69675
0.02	9.26552
0.03	9.38295
0.04	9.34545
0.05	9.37308
0.06	9.37407
0.07	9.36815
0.08	9.39085
0.09	9.35039
0.1	9.39677
0.11	9.40072
0.12	9.40006
0.13	9.36025
0.14	9.40433
0.15	9.37078
0.16	9.38789
0.17	9.36848
0.18	9.37736
0.19	9.37736
0.2	9.37966
0.21	9.3642
0.22	9.37539
0.23	9.33427
0.24	9.3494
0.25	9.36058
0.26	9.35993
0.27	9.35104
0.28	9.33887
0.29	9.35762
0.3	9.329
0.31	9.33065
0.32	9.32078
0.33	9.32835
0.34	9.31552
0.35	9.32045
0.36	9.29183
0.37	9.27242
0.38	9.29874
0.39	9.27637
0.4	9.22834
0.41	9.24677
0.42	9.25959
0.43	9.25137
0.44	9.28591
0.45	9.24907
0.46	9.24315
0.47	9.22604
0.48	9.24381
0.49	9.2517
0.5	9.27506
0.51	9.22275
0.52	9.21058
0.53	9.23986
0.54	9.20269
0.55	9.204
0.56	9.18755
0.57	9.16124
0.58	9.17736
0.59	9.1517
0.6	9.16519
0.61	9.16091
0.62	9.17999
0.63	9.16025
0.64	9.17176
0.65	9.16716
0.66	9.14051
0.67	9.09413
0.68	9.104
0.69	9.11913
0.7	9.13492
0.71	9.10992
0.72	9.10992
0.73	9.08854
0.74	9.07801
0.75	9.05893
0.76	9.04479
0.77	9.05137
0.78	9.06584
0.79	9.07966
0.8	9.04643
0.81	9.02538
0.82	9.0688
0.83	9.03196
0.84	9.00531
0.85	9.01814
0.86	9.029
0.87	9.03558
0.88	9.02209
0.89	9.02439
0.9	9.00729
0.91	8.98788
0.92	8.98854
0.93	8.99018
0.94	8.9688
0.95	8.94577
0.96	8.96419
0.97	8.96189
0.98	8.98262
0.99	8.9415
1	8.89939
1.01	8.94084
1.02	8.94413
1.03	8.93294
1.04	8.90564
1.05	8.91617
1.06	8.86156
1.07	8.87735
1.08	8.89544
1.09	8.88952
1.1	8.88853
1.11	8.84478
1.12	8.87768
1.13	8.88557
1.14	8.89018
1.15	8.85663
1.16	8.85235
1.17	8.85761
1.18	8.83459
1.19	8.82768
1.2	8.82406
1.21	8.82932
1.22	8.80366
1.23	8.80432
1.24	8.78919
1.25	8.79281
1.26	8.78294
1.27	8.7859
1.28	8.79248
1.29	8.7859
1.3	8.80366
1.31	8.74807
1.32	8.73031
1.33	8.73261
1.34	8.73228
1.35	8.73689
1.36	8.75268
1.37	8.72472
1.38	8.72143
1.39	8.71583
1.4	8.71057
1.41	8.69939
1.42	8.67274
1.43	8.70136
1.44	8.66485
1.45	8.67537
1.46	8.69511
1.47	8.6632
1.48	8.66912
1.49	8.67044
1.5	8.67011
1.51	8.65267
1.52	8.68064
1.53	8.6586
1.54	8.65004
1.55	8.63031
1.56	8.61156
1.57	8.61386
1.58	8.60728
1.59	8.60037
1.6	8.6007
1.61	8.60629
1.62	8.55465
1.63	8.55991
1.64	8.55629
1.65	8.58096
1.66	8.55925
1.67	8.55859
1.68	8.553
1.69	8.51188
1.7	8.53754
1.71	8.53524
1.72	8.50892
1.73	8.51287
1.74	8.54182
1.75	8.52142
1.76	8.478
1.77	8.4803
1.78	8.47833
1.79	8.50201
1.8	8.4905
1.81	8.46221
1.82	8.44346
1.83	8.43622
1.84	8.45399
1.85	8.47603
1.86	8.46188
1.87	8.42274
1.88	8.4428
1.89	8.40727
1.9	8.41616
1.91	8.37898
1.92	8.403
1.93	8.41583
1.94	8.38523
1.95	8.39379
1.96	8.38491
1.97	8.38392
1.98	8.37273
1.99	8.37866
2	8.34905
2.01	8.3201
2.02	8.36846
2.03	8.3451
2.04	8.33326
2.05	8.32306
2.06	8.30201
2.07	8.28128
2.08	8.29609
2.09	8.32734
2.1	8.2905
2.11	8.31023
2.12	8.30694
2.13	8.27142
2.14	8.25563
2.15	8.27635
2.16	8.26846
2.17	8.25102
2.18	8.26352
2.19	8.23359
2.2	8.24773
2.21	8.26648
2.22	8.19872
2.23	8.23688
2.24	8.22438
2.25	8.20924
2.26	8.2122
2.27	8.21089
2.28	8.18951
2.29	8.20201
2.3	8.18753
2.31	8.17273
2.32	8.2053
2.33	8.19641
2.34	8.17174
2.35	8.15826
2.36	8.1372
2.37	8.11418
2.38	8.15069
2.39	8.13424
2.4	8.16582
2.41	8.14543
2.42	8.11089
2.43	8.13523
2.44	8.11648
2.45	8.10694
2.46	8.11779
2.47	8.09937
2.48	8.08095
2.49	8.08687
2.5	8.08029
2.51	8.06549
2.52	8.04937
2.53	8.05628
2.54	8.06253
2.55	8.06352
2.56	8.06253
2.57	8.04115
2.58	8.03917
2.59	8.02865
2.6	8.03983
2.61	8.03424
2.62	8.02931
2.63	8.04542
2.64	8.01154
2.65	7.977
2.66	7.97437
2.67	7.97766
2.68	7.96253
2.69	7.97075
2.7	7.95661
2.71	7.97174
2.72	7.97963
2.73	7.9724
2.74	7.93851
2.75	7.95891
2.76	7.95463
2.77	7.93062
2.78	7.95496
2.79	7.94871
2.8	7.92141
2.81	7.91943
2.82	7.91022
2.83	7.91055
2.84	7.89674
2.85	7.88391
2.86	7.90003
2.87	7.90463
2.88	7.91022
2.89	7.88325
2.9	7.88654
2.91	7.87897
2.92	7.83917
2.93	7.83983
2.94	7.83391
2.95	7.82897
2.96	7.82864
2.97	7.79838
2.98	7.81844
2.99	7.82568
3	7.82371
3.01	7.81285
3.02	7.7941
3.03	7.78522
3.04	7.80627
3.05	7.79805
3.06	7.80397
3.07	7.79969
3.08	7.77075
3.09	7.76186
3.1	7.77733
3.11	7.79081
3.12	7.7589
3.13	7.77502
3.14	7.75463
3.15	7.76943
3.16	7.75002
3.17	7.73621
3.18	7.76186
3.19	7.73588
3.2	7.7191
3.21	7.73259
3.22	7.71614
3.23	7.71055
3.24	7.68653
3.25	7.67897
3.26	7.69213
3.27	7.66614
3.28	7.67173
3.29	7.68785
3.3	7.65857
3.31	7.64311
3.32	7.6487
3.33	7.66088
3.34	7.63949
3.35	7.61449
3.36	7.62008
3.37	7.6168
3.38	7.63456
3.39	7.61548
3.4	7.63719
3.41	7.60824
3.42	7.59772
3.43	7.59114
3.44	7.6112
3.45	7.61285
3.46	7.57568
3.47	7.54344
3.48	7.54903
3.49	7.5464
3.5	7.55725
3.51	7.56087
3.52	7.55429
3.53	7.56449
3.54	7.5385
3.55	7.55693
3.56	7.53521
3.57	7.53785
3.58	7.52962
3.59	7.52271
3.6	7.50232
3.61	7.53324
3.62	7.50363
3.63	7.476
3.64	7.50067
3.65	7.48686
3.66	7.48061
3.67	7.44969
3.68	7.47863
3.69	7.48324
3.7	7.45594
3.71	7.49081
3.72	7.44541
3.73	7.42633
3.74	7.47995
3.75	7.45298
3.76	7.41876
3.77	7.43455
3.78	7.43455
3.79	7.40133
3.8	7.42501
3.81	7.44442
3.82	7.42995
3.83	7.41153
3.84	7.41646
3.85	7.42238
3.86	7.40922
3.87	7.38357
3.88	7.39574
3.89	7.39014
3.9	7.39771
3.91	7.38916
3.92	7.36416
3.93	7.37403
3.94	7.37172
3.95	7.35593
3.96	7.35067
3.97	7.34442
3.98	7.33916
3.99	7.34672
4	7.34179
4.01	7.34606
4.02	7.34047
4.03	7.32567
4.04	7.30297
4.05	7.28291
4.06	7.33291
4.07	7.31942
4.08	7.28422
4.09	7.30297
4.1	7.28652
4.11	7.28291
4.12	7.28323
4.13	7.29245
4.14	7.30429
4.15	7.28948
4.16	7.2704
4.17	7.27073
4.18	7.26284
4.19	7.27896
4.2	7.26021
4.21	7.24047
4.22	7.24639
4.23	7.2556
4.24	7.25133
4.25	7.22238
4.26	7.2158
4.27	7.21514
4.28	7.21646
4.29	7.21711
4.3	7.20198
4.31	7.20593
4.32	7.19836
4.33	7.1783
4.34	7.17073
4.35	7.17764
4.36	7.20067
4.37	7.2056
4.38	7.18652
4.39	7.16678
4.4	7.17271
4.41	7.16119
4.42	7.13257
4.43	7.14178
4.44	7.12073
4.45	7.13356
4.46	7.12566
4.47	7.13849
4.48	7.13652
4.49	7.12073
4.5	7.13488
4.51	7.1306
4.52	7.12797
4.53	7.10231
4.54	7.10626
4.55	7.11876
4.56	7.10527
4.57	7.08849
4.58	7.09705
4.59	7.08915
4.6	7.08422
4.61	7.06941
4.62	7.07402
4.63	7.05823
4.64	7.0681
4.65	7.0704
4.66	7.04869
4.67	7.04606
4.68	7.03948
4.69	7.02994
4.7	7.02106
4.71	7.01941
4.72	7.01842
4.73	6.99967
4.74	7.01678
4.75	6.99277
4.76	7.01217
4.77	7.0079
4.78	6.99178
4.79	7.00461
4.8	7
4.81	6.99441
4.82	6.9648
4.83	6.99408
4.84	6.97434
4.85	6.98652
4.86	6.96842
4.87	6.98224
4.88	6.98553
4.89	6.96546
4.9	6.9625
4.91	6.96217
4.92	6.92796
4.93	6.93651
4.94	6.96053
4.95	6.9523
4.96	6.93454
4.97	6.92533
4.98	6.89309
4.99	6.9
5	6.90296
5.01	6.93619
5.02	6.90165
5.03	6.9
5.04	6.92369
5.05	6.90855
5.06	6.89276
5.07	6.88717
5.08	6.91316
5.09	6.90822
5.1	6.8773
5.11	6.89079
5.12	6.85724
5.13	6.88487
5.14	6.85526
5.15	6.85197
5.16	6.88158
5.17	6.86842
5.18	6.85099
5.19	6.86842
5.2	6.84539
5.21	6.81085
5.22	6.81875
5.23	6.82697
5.24	6.83322
5.25	6.82072
5.26	6.7898
5.27	6.81941
5.28	6.81842
5.29	6.83256
5.3	6.81974
5.31	6.82105
5.32	6.79934
5.33	6.79967
5.34	6.79934
5.35	6.81217
5.36	6.80789
5.37	6.77763
5.38	6.7671
5.39	6.76151
5.4	6.78947
5.41	6.74769
5.42	6.74967
5.43	6.76612
5.44	6.74671
5.45	6.74177
5.46	6.76348
5.47	6.75855
5.48	6.78059
5.49	6.7375
5.5	6.73552
5.51	6.7273
5.52	6.74276
5.53	6.72829
5.54	6.73223
5.55	6.74375
5.56	6.70394
5.57	6.71776
5.58	6.7069
5.59	6.68618
5.6	6.71085
5.61	6.68585
5.62	6.69144
5.63	6.70657
5.64	6.7
5.65	6.70789
5.66	6.68914
5.67	6.65361
5.68	6.67368
5.69	6.69407
5.7	6.68355
5.71	6.68486
5.72	6.67861
5.73	6.65624
5.74	6.65328
5.75	6.65295
5.76	6.63782
5.77	6.65559
5.78	6.66052
5.79	6.6546
5.8	6.65526
5.81	6.64539
5.82	6.62532
5.83	6.63157
5.84	6.62137
5.85	6.63026
5.86	6.62203
5.87	6.6046
5.88	6.60328
5.89	6.61183
5.9	6.61118
5.91	6.59933
5.92	6.58354
5.93	6.61019
5.94	6.60526
5.95	6.58058
5.96	6.59111
5.97	6.5842
5.98	6.57795
5.99	6.57828
6	6.57532
6.01	6.57072
6.02	6.56348
6.03	6.54999
6.04	6.56874
6.05	6.55098
6.06	6.55887
6.07	6.54144
6.08	6.52499
6.09	6.53946
6.1	6.53881
6.11	6.52631
6.12	6.54637
6.13	6.54868
6.14	6.53979
6.15	6.51874
6.16	6.52433
6.17	6.49045
6.18	6.53223
6.19	6.51742
6.2	6.52598
6.21	6.49538
6.22	6.49867
6.23	6.48157
6.24	6.48946
6.25	6.49045
6.26	6.5092
6.27	6.51348
6.28	6.50788
6.29	6.50098
6.3	6.49012
6.31	6.45394
6.32	6.47663
6.33	6.45723
6.34	6.47302
6.35	6.4819
6.36	6.47992
6.37	6.48223
6.38	6.4717
6.39	6.4263
6.4	6.47367
6.41	6.44571
6.42	6.46249
6.43	6.48025
6.44	6.45361
6.45	6.43519
6.46	6.42795
6.47	6.44867
6.48	6.42565
6.49	6.44604
6.5	6.43157
6.51	6.42466
6.52	6.4388
6.53	6.42301
6.54	6.41841
6.55	6.40328
6.56	6.40821
6.57	6.40986
6.58	6.41742
6.59	6.41775
6.6	6.38025
6.61	6.36676
6.62	6.40032
6.63	6.43354
6.64	6.37597
6.65	6.35558
6.66	6.37433
6.67	6.36643
6.68	6.35854
6.69	6.34637
6.7	6.36841
6.71	6.36709
6.72	6.349
6.73	6.35558
6.74	6.35788
6.75	6.37499
6.76	6.38354
6.77	6.36972
6.78	6.34308
6.79	6.36018
6.8	6.35426
6.81	6.35426
6.82	6.35722
6.83	6.3467
6.84	6.37893
6.85	6.34702
6.86	6.32696
6.87	6.30097
6.88	6.28452
6.89	6.29505
6.9	6.31051
6.91	6.30623
6.92	6.3115
6.93	6.30919
6.94	6.30525
6.95	6.30525
6.96	6.29044
6.97	6.28584
6.98	6.274
6.99	6.30459
7	6.28814
7.01	6.28485
7.02	6.30558
7.03	6.29538
7.04	6.27794
7.05	6.28255
7.06	6.28058
7.07	6.28419
7.08	6.26314
7.09	6.25426
7.1	6.249
7.11	6.25623
7.12	6.25623
7.13	6.26479
7.14	6.24505
7.15	6.23025
7.16	6.24998
7.17	6.27235
7.18	6.23222
7.19	6.22465
7.2	6.24143
7.21	6.26183
7.22	6.24176
7.23	6.20623
7.24	6.24768
7.25	6.22334
7.26	6.24636
7.27	6.22005
7.28	6.22103
7.29	6.21281
7.3	6.20722
7.31	6.21807
7.32	6.21413
7.33	6.21018
7.34	6.18485
7.35	6.20327
7.36	6.2286
7.37	6.21972
7.38	6.23781
7.39	6.21577
7.4	6.20163
7.41	6.18452
7.42	6.18288
7.43	6.1934
7.44	6.18123
7.45	6.15557
7.46	6.1388
7.47	6.17695
7.48	6.16511
7.49	6.17827
7.5	6.1661
7.51	6.17169
7.52	6.18386
7.53	6.15426
7.54	6.17169
7.55	6.16676
7.56	6.17301
7.57	6.1638
7.58	6.16544
7.59	6.16807
7.6	6.18156
7.61	6.15393
7.62	6.15459
7.63	6.13912
7.64	6.12498
7.65	6.13485
7.66	6.10623
7.67	6.11083
7.68	6.15656
7.69	6.11314
7.7	6.11708
7.71	6.12366
7.72	6.10722
7.73	6.13353
7.74	6.10952
7.75	6.10689
7.76	6.09965
7.77	6.12037
7.78	6.10458
7.79	6.10853
7.8	6.09735
7.81	6.11347
7.82	6.0911
7.83	6.08485
7.84	6.09866
7.85	6.10689
7.86	6.08419
7.87	6.08452
7.88	6.11906
7.89	6.06873
7.9	6.073
7.91	6.0957
7.92	6.08583
7.93	6.09274
7.94	6.07202
7.95	6.06116
7.96	6.06939
7.97	6.08254
7.98	6.06939
7.99	6.07004
8	6.06774
8.01	6.06445
8.02	6.07596
8.03	6.07794
8.04	6.04175
8.05	6.05524
8.06	6.04899
8.07	6.02432
8.08	6.03287
8.09	6.06906
8.1	6.04899
8.11	6.0355
8.12	6.04077
8.13	6.02563
8.14	6.03912
8.15	6.03221
8.16	6.03287
8.17	6.04537
8.18	6.048
8.19	6.0434
8.2	6.02267
8.21	6.0082
8.22	5.9878
8.23	6.02728
8.24	6.01642
8.25	6.00557
8.26	6.00063
8.27	6.0355
8.28	6.02892
8.29	6.01938
8.3	6.01116
8.31	5.99767
8.32	6.0332
8.33	6.0059
8.34	6.01116
8.35	5.99504
8.36	5.98715
8.37	5.99866
8.38	5.98451
8.39	6.01642
8.4	5.998
8.41	5.99405
8.42	5.99537
8.43	5.96478
8.44	5.97267
8.45	5.97563
8.46	5.96938
8.47	5.97103
8.48	5.97563
8.49	5.97859
8.5	5.98517
8.51	5.97399
8.52	5.97366
8.53	5.97037
8.54	5.96905
8.55	5.97136
8.56	5.95524
8.57	5.97892
8.58	5.98221
8.59	5.9503
8.6	5.9378
8.61	5.9707
8.62	5.95096
8.63	5.9605
8.64	5.93418
8.65	5.93057
8.66	5.91214
8.67	5.93714
8.68	5.92892
8.69	5.9253
8.7	5.92168
8.71	5.93024
8.72	5.92497
8.73	5.91214
8.74	5.9082
8.75	5.94471
8.76	5.93386
8.77	5.93714
8.78	5.94241
8.79	5.90918
8.8	5.91642
8.81	5.90392
8.82	5.90984
8.83	5.89668
8.84	5.89734
8.85	5.90195
8.86	5.89142
8.87	5.89043
8.88	5.89899
8.89	5.90622
8.9	5.86576
8.91	5.90063
8.92	5.91905
8.93	5.89504
8.94	5.89734
8.95	5.87892
8.96	5.8901
8.97	5.8957
8.98	5.90063
8.99	5.90195
9	5.8776
9.01	5.87859
9.02	5.87793
9.03	5.8605
9.04	5.8753
9.05	5.86806
9.06	5.88681
9.07	5.88912
9.08	5.88287
9.09	5.86214
9.1	5.87135
9.11	5.88287
9.12	5.86971
9.13	5.85129
9.14	5.86938
9.15	5.86148
9.16	5.88287
9.17	5.87135
9.18	5.86774
9.19	5.85852
9.2	5.8651
9.21	5.85359
9.22	5.84569
9.23	5.84866
9.24	5.85622
9.25	5.83089
9.26	5.85096
9.27	5.84175
9.28	5.84964
9.29	5.83714
9.3	5.84931
9.31	5.82859
9.32	5.86708
9.33	5.83122
9.34	5.83287
9.35	5.84767
9.36	5.81971
9.37	5.80754
9.38	5.82727
9.39	5.81148
9.4	5.81444
9.41	5.8026
9.42	5.83747
9.43	5.83122
9.44	5.83418
9.45	5.82431
9.46	5.81773
9.47	5.81971
9.48	5.79964
9.49	5.79536
9.5	5.79898
9.51	5.81543
9.52	5.81905
9.53	5.80293
9.54	5.81543
9.55	5.81181
9.56	5.80688
9.57	5.8105
9.58	5.79076
9.59	5.80786
9.6	5.78944
9.61	5.79076
9.62	5.78911
9.63	5.77859
9.64	5.77596
9.65	5.77859
9.66	5.75556
9.67	5.7651
9.68	5.78451
9.69	5.77003
9.7	5.77036
9.71	5.79701
9.72	5.77102
9.73	5.77661
9.74	5.78681
9.75	5.77596
9.76	5.77267
9.77	5.78582
9.78	5.77793
9.79	5.79339
9.8	5.78286
9.81	5.76642
9.82	5.77003
9.83	5.76082
9.84	5.7753
9.85	5.78944
9.86	5.7628
9.87	5.75359
9.88	5.7651
9.89	5.75885
9.9	5.74438
9.91	5.75885
9.92	5.75424
9.93	5.73878
9.94	5.75721
9.95	5.73319
9.96	5.73023
9.97	5.76346
9.98	5.76609
9.99	5.76576
10	5.73878
10.01	5.73845
10.02	5.72201
10.03	5.74503
10.04	5.76346
10.05	5.72102
10.06	5.7276
10.07	5.72332
10.08	5.72924
10.09	5.7174
10.1	5.72628
10.11	5.70293
10.12	5.73056
10.13	5.72497
10.14	5.73089
10.15	5.73122
10.16	5.71707
10.17	5.73056
10.18	5.71313
10.19	5.72135
10.2	5.72694
10.21	5.72661
10.22	5.72431
10.23	5.71773
10.24	5.71477
10.25	5.72003
10.26	5.71115
10.27	5.71181
10.28	5.71576
10.29	5.71773
10.3	5.70819
10.31	5.70457
10.32	5.69701
10.33	5.66937
10.34	5.6878
10.35	5.68352
10.36	5.67957
10.37	5.69405
10.38	5.7174
10.39	5.66214
10.4	5.65819
10.41	5.70359
10.42	5.68549
10.43	5.6822
10.44	5.68418
10.45	5.67661
10.46	5.6822
10.47	5.68187
10.48	5.69372
10.49	5.68977
10.5	5.6878
10.51	5.70753
10.52	5.70326
10.53	5.6822
10.54	5.69109
10.55	5.69207
10.56	5.65951
10.57	5.6776
10.58	5.68944
10.59	5.68944
10.6	5.68385
10.61	5.65918
10.62	5.67168
10.63	5.68023
10.64	5.68286
10.65	5.69602
10.66	5.67924
10.67	5.67595
10.68	5.66477
10.69	5.66937
10.7	5.67299
10.71	5.67497
10.72	5.66773
10.73	5.67036
10.74	5.6447
10.75	5.63352
10.76	5.67233
10.77	5.62661
10.78	5.6174
10.79	5.63911
10.8	5.67398
10.81	5.67036
10.82	5.67299
10.83	5.64372
10.84	5.64602
10.85	5.64668
10.86	5.67365
10.87	5.67102
10.88	5.67924
10.89	5.66773
10.9	5.64766
10.91	5.64898
10.92	5.64141
10.93	5.63779
10.94	5.67003
10.95	5.6549
10.96	5.64404
10.97	5.64766
10.98	5.64372
10.99	5.64108
11	5.66214
11.01	5.61904
11.02	5.64733
11.03	5.64799
11.04	5.61608
11.05	5.65358
11.06	5.6299
11.07	5.63779
11.08	5.64043
11.09	5.61904
11.1	5.62069
11.11	5.62694
11.12	5.647
11.13	5.61839
11.14	5.62299
11.15	5.6095
11.16	5.62266
11.17	5.60753
11.18	5.59667
11.19	5.60227
11.2	5.61839
11.21	5.59306
11.22	5.57398
11.23	5.61246
11.24	5.62793
11.25	5.60753
11.26	5.61839
11.27	5.59832
11.28	5.60128
11.29	5.60194
11.3	5.59766
11.31	5.58121
11.32	5.60556
11.33	5.61214
11.34	5.60227
11.35	5.60062
11.36	5.5901
11.37	5.60621
11.38	5.59141
11.39	5.60029
11.4	5.61279
11.41	5.57595
11.42	5.58121
11.43	5.59503
11.44	5.60227
11.45	5.58483
11.46	5.57661
11.47	5.60062
11.48	5.58516
11.49	5.61608
11.5	5.60358
11.51	5.56477
11.52	5.56444
11.53	5.5924
11.54	5.56444
11.55	5.58352
11.56	5.61543
11.57	5.59306
11.58	5.59141
11.59	5.57924
11.6	5.58352
11.61	5.57003
11.62	5.58812
11.63	5.56312
11.64	5.58648
11.65	5.58878
11.66	5.57694
11.67	5.57529
11.68	5.58088
11.69	5.5947
11.7	5.58088
11.71	5.59042
11.72	5.56904
11.73	5.56674
11.74	5.56575
11.75	5.56082
11.76	5.55687
11.77	5.53746
11.78	5.57595
11.79	5.55852
11.8	5.54996
11.81	5.55687
11.82	5.54569
11.83	5.58319
11.84	5.5595
11.85	5.57957
11.86	5.56575
11.87	5.57957
11.88	5.56773
11.89	5.55128
11.9	5.55424
11.91	5.57299
11.92	5.55259
11.93	5.52726
11.94	5.5368
11.95	5.53746
11.96	5.56806
11.97	5.54141
11.98	5.54273
11.99	5.55292
12	5.54832
12.01	5.55457
12.02	5.54075
12.03	5.56444
12.04	5.52496
12.05	5.54667
12.06	5.54766
12.07	5.55194
12.08	5.5424
12.09	5.5424
12.1	5.54174
12.11	5.53878
12.12	5.57496
12.13	5.54305
12.14	5.54437
12.15	5.53845
12.16	5.55227
12.17	5.53121
12.18	5.52924
12.19	5.54371
12.2	5.52759
12.21	5.5595
12.22	5.54042
12.23	5.52101
12.24	5.572
12.25	5.55555
12.26	5.55983
12.27	5.53055
12.28	5.5345
12.29	5.53088
12.3	5.51411
12.31	5.53812
12.32	5.55194
12.33	5.54075
12.34	5.53154
12.35	5.52891
12.36	5.53319
12.37	5.54108
12.38	5.53549
12.39	5.54009
12.4	5.51838
12.41	5.52003
12.42	5.54338
12.43	5.52595
12.44	5.50161
12.45	5.49897
12.46	5.49897
12.47	5.4924
12.48	5.51147
12.49	5.50161
12.5	5.5072
12.51	5.51147
12.52	5.4947
12.53	5.51805
12.54	5.5197
12.55	5.53845
12.56	5.52299
12.57	5.50161
12.58	5.50654
12.59	5.48943
12.6	5.50161
12.61	5.54141
12.62	5.49766
12.63	5.51345
12.64	5.50095
12.65	5.52036
12.66	5.49338
12.67	5.48976
12.68	5.49601
12.69	5.50358
12.7	5.52694
12.71	5.50753
12.72	5.52628
12.73	5.49963
12.74	5.50687
12.75	5.4947
12.76	5.50621
12.77	5.51016
12.78	5.50358
12.79	5.48549
12.8	5.48779
12.81	5.49009
12.82	5.48779
12.83	5.47529
12.84	5.49634
12.85	5.48614
12.86	5.50424
12.87	5.48943
12.88	5.47693
12.89	5.47628
12.9	5.4743
12.91	5.49733
12.92	5.48121
12.93	5.48384
12.94	5.48713
12.95	5.48647
12.96	5.49174
12.97	5.51772
12.98	5.49174
12.99	5.49009
13	5.47693
13.01	5.46509
13.02	5.49075
13.03	5.48483
13.04	5.47134
13.05	5.47661
13.06	5.48417
13.07	5.47989
13.08	5.49568
13.09	5.49568
13.1	5.48187
13.11	5.50358
13.12	5.48812
13.13	5.47299
13.14	5.46016
13.15	5.46542
13.16	5.47496
13.17	5.50983
13.18	5.48812
13.19	5.47661
13.2	5.47496
13.21	5.47628
13.22	5.45457
13.23	5.44601
13.24	5.45983
13.25	5.46378
13.26	5.49963
13.27	5.50555
13.28	5.50292
13.29	5.47167
13.3	5.47628
13.31	5.46838
13.32	5.47068
13.33	5.45983
13.34	5.46246
13.35	5.45654
13.36	5.46575
13.37	5.4618
13.38	5.47266
13.39	5.47496
13.4	5.45128
13.41	5.4697
13.42	5.46805
13.43	5.4618
13.44	5.447
13.45	5.44371
13.46	5.4322
13.47	5.44601
13.48	5.45029
13.49	5.44601
13.5	5.46246
13.51	5.45654
13.52	5.47628
13.53	5.45226
13.54	5.44108
13.55	5.4516
13.56	5.4572
13.57	5.44437
13.58	5.43976
13.59	5.45621
13.6	5.45457
13.61	5.44371
13.62	5.46114
13.63	5.44174
13.64	5.46147
13.65	5.46279
13.66	5.4618
13.67	5.45917
13.68	5.45062
13.69	5.46772
13.7	5.45095
13.71	5.44371
13.72	5.43088
13.73	5.42858
13.74	5.46246
13.75	5.45588
13.76	5.42463
