"BIO-KINE ASCII FILE"
"_COMMENT"	"MOS-500 Spectrometer"
"_COMMENT"	"Kinetics measurement"
"_COMMENT"	"Y Unit : Volt,  X Unit : s"
"_COMMENT"	"Excitation wavelength : 380 nm"
"_COMMENT"	"Fentes bandwidth =  1 nm"
"_COMMENT"	"HV= 750V"
"_COMMENT"	"Timebase  1 =  .01 s   3001 pts"
"_SFM"	"SFM-400 /S  Advanced mode"
"_SFM"	"Ratio : S1: 2.5, S2: 0, S3: 0, S4: 1"
"_SFM"	"Content : S1: , S2: , S3: , S4:"
"_SFM"	"Concentration : S1: , S2: , S3: , S4:"
"_SFM"	"Total volume : 209 µl  Flow : 3.5 mL/s"
"_SFM"	"Acquisition start :  10 ms before stop"
"_SFM"	"cuve=FC-15, s1=10 ml , s2=10 ml , s3=10 ml , s4=1.9 ml"
"_UNITX"	"s"
"_UNITY"	"Volt"
"_DELTAX"	0
"_DATA"
1e-300	7.06514
0.01	7.59048
0.02	7.66384
0.03	7.61811
0.04	7.63587
0.05	7.63094
0.06	7.63555
0.07	7.64114
0.08	7.64147
0.09	7.66186
0.1	7.64772
0.11	7.65298
0.12	7.65002
0.13	7.65134
0.14	7.65199
0.15	7.64147
0.16	7.63456
0.17	7.63324
0.18	7.64607
0.19	7.64377
0.2	7.65134
0.21	7.64147
0.22	7.63522
0.23	7.60594
0.24	7.62272
0.25	7.60462
0.26	7.60989
0.27	7.63127
0.28	7.60298
0.29	7.60002
0.3	7.59212
0.31	7.57732
0.32	7.60035
0.33	7.59574
0.34	7.57995
0.35	7.58127
0.36	7.56285
0.37	7.57633
0.38	7.57436
0.39	7.55396
0.4	7.55758
0.41	7.55462
0.42	7.55923
0.43	7.54574
0.44	7.51712
0.45	7.50561
0.46	7.53028
0.47	7.52469
0.48	7.52831
0.49	7.50002
0.5	7.501
0.51	7.50561
0.52	7.50692
0.53	7.47863
0.54	7.48127
0.55	7.47699
0.56	7.47205
0.57	7.47567
0.58	7.46252
0.59	7.46449
0.6	7.45133
0.61	7.44673
0.62	7.45001
0.63	7.43159
0.64	7.41449
0.65	7.42567
0.66	7.41811
0.67	7.4089
0.68	7.4158
0.69	7.39672
0.7	7.38488
0.71	7.38982
0.72	7.39672
0.73	7.3737
0.74	7.35166
0.75	7.33554
0.76	7.35199
0.77	7.36021
0.78	7.33685
0.79	7.33949
0.8	7.34278
0.81	7.32995
0.82	7.32468
0.83	7.32041
0.84	7.326
0.85	7.32172
0.86	7.31383
0.87	7.30758
0.88	7.30231
0.89	7.29475
0.9	7.27501
0.91	7.26975
0.92	7.26712
0.93	7.27337
0.94	7.25396
0.95	7.24804
0.96	7.23521
0.97	7.24146
0.98	7.23159
0.99	7.21679
1	7.21843
1.01	7.20396
1.02	7.21646
1.03	7.22073
1.04	7.20757
1.05	7.20659
1.06	7.20363
1.07	7.20001
1.08	7.17731
1.09	7.16876
1.1	7.16448
1.11	7.16053
1.12	7.15198
1.13	7.14211
1.14	7.14277
1.15	7.13816
1.16	7.13356
1.17	7.14145
1.18	7.1158
1.19	7.12172
1.2	7.13159
1.21	7.09441
1.22	7.09376
1.23	7.08816
1.24	7.07665
1.25	7.08027
1.26	7.07764
1.27	7.07468
1.28	7.07303
1.29	7.06283
1.3	7.04606
1.31	7.05066
1.32	7.04671
1.33	7.03849
1.34	7.04277
1.35	7.03619
1.36	7.02599
1.37	7.02369
1.38	7.00921
1.39	7.00461
1.4	7.00198
1.41	7.00231
1.42	6.99145
1.43	6.99869
1.44	6.97402
1.45	6.98487
1.46	6.96842
1.47	6.9727
1.48	6.97533
1.49	6.96612
1.5	6.96415
1.51	6.94375
1.52	6.94178
1.53	6.95099
1.54	6.95296
1.55	6.94408
1.56	6.9329
1.57	6.91546
1.58	6.93323
1.59	6.90888
1.6	6.9
1.61	6.91316
1.62	6.89704
1.63	6.87632
1.64	6.88257
1.65	6.87204
1.66	6.8727
1.67	6.87401
1.68	6.8773
1.69	6.87105
1.7	6.85691
1.71	6.84178
1.72	6.84835
1.73	6.85296
1.74	6.83355
1.75	6.83454
1.76	6.83717
1.77	6.81217
1.78	6.80954
1.79	6.80723
1.8	6.79638
1.81	6.79013
1.82	6.78519
1.83	6.77829
1.84	6.77302
1.85	6.7648
1.86	6.76283
1.87	6.75394
1.88	6.74572
1.89	6.74473
1.9	6.74046
1.91	6.73914
1.92	6.74539
1.93	6.72434
1.94	6.71414
1.95	6.70756
1.96	6.71118
1.97	6.68717
1.98	6.68815
1.99	6.68388
2	6.68947
2.01	6.68519
2.02	6.66743
2.03	6.6717
2.04	6.65624
2.05	6.65427
2.06	6.65559
2.07	6.65526
2.08	6.64309
2.09	6.63157
2.1	6.62466
2.11	6.62137
2.12	6.62236
2.13	6.61545
2.14	6.60328
2.15	6.60986
2.16	6.60098
2.17	6.59341
2.18	6.59243
2.19	6.57828
2.2	6.57269
2.21	6.57631
2.22	6.55822
2.23	6.54308
2.24	6.55032
2.25	6.56545
2.26	6.55657
2.27	6.55032
2.28	6.54736
2.29	6.53716
2.3	6.53058
2.31	6.5217
2.32	6.5069
2.33	6.51183
2.34	6.49769
2.35	6.50624
2.36	6.50065
2.37	6.48025
2.38	6.47959
2.39	6.48256
2.4	6.47302
2.41	6.47762
2.42	6.46117
2.43	6.45624
2.44	6.44966
2.45	6.45657
2.46	6.42236
2.47	6.43124
2.48	6.43551
2.49	6.41183
2.5	6.41446
2.51	6.41249
2.52	6.4069
2.53	6.40755
2.54	6.41578
2.55	6.39966
2.56	6.38157
2.57	6.36939
2.58	6.36643
2.59	6.38551
2.6	6.36512
2.61	6.35525
2.62	6.37005
2.63	6.35262
2.64	6.34702
2.65	6.35788
2.66	6.33781
2.67	6.32367
2.68	6.31413
2.69	6.32104
2.7	6.31216
2.71	6.31808
2.72	6.30919
2.73	6.28683
2.74	6.29801
2.75	6.30656
2.76	6.29308
2.77	6.27992
2.78	6.27762
2.79	6.28551
2.8	6.27663
2.81	6.27433
2.82	6.27071
2.83	6.26577
2.84	6.25952
2.85	6.24834
2.86	6.23222
2.87	6.22301
2.88	6.22531
2.89	6.23847
2.9	6.22794
2.91	6.21051
2.92	6.21446
2.93	6.21149
2.94	6.20985
2.95	6.20689
2.96	6.19505
2.97	6.18584
2.98	6.18353
2.99	6.18913
3	6.18024
3.01	6.17992
3.02	6.16511
3.03	6.16939
3.04	6.1707
3.05	6.15886
3.06	6.14406
3.07	6.15064
3.08	6.14768
3.09	6.12366
3.1	6.12432
3.11	6.14669
3.12	6.12301
3.13	6.11774
3.14	6.10261
3.15	6.10294
3.16	6.11281
3.17	6.11379
3.18	6.09866
3.19	6.07037
3.2	6.08781
3.21	6.08715
3.22	6.05787
3.23	6.07728
3.24	6.06149
3.25	6.05458
3.26	6.05524
3.27	6.06017
3.28	6.04175
3.29	6.04899
3.3	6.03188
3.31	6.03517
3.32	6.03616
3.33	6.0309
3.34	6.0411
3.35	6.02859
3.36	6.01675
3.37	6.01017
3.38	6.00952
3.39	5.99965
3.4	5.99537
3.41	5.98583
3.42	5.99833
3.43	5.99537
3.44	5.97991
3.45	5.96544
3.46	5.96774
3.47	5.9582
3.48	5.9707
3.49	5.95886
3.5	5.95524
3.51	5.94142
3.52	5.94043
3.53	5.93846
3.54	5.93484
3.55	5.91445
3.56	5.92004
3.57	5.91149
3.58	5.91938
3.59	5.91116
3.6	5.91839
3.61	5.91346
3.62	5.90491
3.63	5.88287
3.64	5.86708
3.65	5.85655
3.66	5.84997
3.67	5.87563
3.68	5.87135
3.69	5.86774
3.7	5.86247
3.71	5.83879
3.72	5.84734
3.73	5.84602
3.74	5.84635
3.75	5.84306
3.76	5.8299
3.77	5.8355
3.78	5.83352
3.79	5.81181
3.8	5.8105
3.81	5.81806
3.82	5.8174
3.83	5.81609
3.84	5.79504
3.85	5.81609
3.86	5.79734
3.87	5.79833
3.88	5.79207
3.89	5.77596
3.9	5.76477
3.91	5.76938
3.92	5.76017
3.93	5.76773
3.94	5.75984
3.95	5.75161
3.96	5.74701
3.97	5.7276
3.98	5.73681
3.99	5.73319
4	5.73188
4.01	5.72036
4.02	5.72563
4.03	5.72497
4.04	5.72563
4.05	5.71543
4.06	5.71378
4.07	5.70391
4.08	5.71839
4.09	5.70819
4.1	5.68747
4.11	5.69602
4.12	5.69109
4.13	5.69832
4.14	5.70359
4.15	5.68845
4.16	5.67233
4.17	5.66345
4.18	5.66411
4.19	5.65457
4.2	5.66279
4.21	5.65523
4.22	5.66115
4.23	5.65654
4.24	5.64141
4.25	5.64043
4.26	5.63023
4.27	5.62727
4.28	5.63023
4.29	5.62332
4.3	5.63549
4.31	5.63089
4.32	5.6095
4.33	5.61115
4.34	5.5901
4.35	5.58977
4.36	5.59569
4.37	5.6095
4.38	5.57924
4.39	5.57595
4.4	5.57694
4.41	5.58648
4.42	5.57891
4.43	5.58154
4.44	5.56213
4.45	5.55029
4.46	5.56115
4.47	5.54075
4.48	5.55983
4.49	5.55095
4.5	5.53023
4.51	5.52924
4.52	5.53516
4.53	5.52891
4.54	5.51805
4.55	5.51608
4.56	5.52858
4.57	5.52957
4.58	5.51772
4.59	5.50259
4.6	5.49963
4.61	5.51641
4.62	5.4822
4.63	5.497
4.64	5.50128
4.65	5.50095
4.66	5.49141
4.67	5.48911
4.68	5.48549
4.69	5.47068
4.7	5.47496
4.71	5.45818
4.72	5.4493
4.73	5.45522
4.74	5.45259
4.75	5.45489
4.76	5.46213
4.77	5.45391
4.78	5.44108
4.79	5.45095
4.8	5.44601
4.81	5.4322
4.82	5.42167
4.83	5.43417
4.84	5.41772
4.85	5.41772
4.86	5.42035
4.87	5.40983
4.88	5.41147
4.89	5.40193
4.9	5.40621
4.91	5.39733
4.92	5.39141
4.93	5.36279
4.94	5.39173
4.95	5.372
4.96	5.39568
4.97	5.37331
4.98	5.37726
4.99	5.36443
5	5.37989
5.01	5.36509
5.02	5.35226
5.03	5.38548
5.04	5.36081
5.05	5.35259
5.06	5.34173
5.07	5.32693
5.08	5.33746
5.09	5.33746
5.1	5.33581
5.11	5.32825
5.12	5.32825
5.13	5.34107
5.14	5.31706
5.15	5.3164
5.16	5.32364
5.17	5.31114
5.18	5.30588
5.19	5.30884
5.2	5.29897
5.21	5.30193
5.22	5.30292
5.23	5.28713
5.24	5.2937
5.25	5.26739
5.26	5.27693
5.27	5.28614
5.28	5.27364
5.29	5.2789
5.3	5.26706
5.31	5.26541
5.32	5.26673
5.33	5.26114
5.34	5.24206
5.35	5.25127
5.36	5.24831
5.37	5.26081
5.38	5.24995
5.39	5.24173
5.4	5.25324
5.41	5.24831
5.42	5.22166
5.43	5.23416
5.44	5.24337
5.45	5.22561
5.46	5.2289
5.47	5.22791
5.48	5.21443
5.49	5.21706
5.5	5.2039
5.51	5.20357
5.52	5.20587
5.53	5.19633
5.54	5.19995
5.55	5.2187
5.56	5.19239
5.57	5.20061
5.58	5.20258
5.59	5.18877
5.6	5.19666
5.61	5.19239
5.62	5.16048
5.63	5.16377
5.64	5.15817
5.65	5.16344
5.66	5.14962
5.67	5.14896
5.68	5.16081
5.69	5.15127
5.7	5.14831
5.71	5.14962
5.72	5.15192
5.73	5.14633
5.74	5.14502
5.75	5.14699
5.76	5.1414
5.77	5.1391
5.78	5.1312
5.79	5.12265
5.8	5.12528
5.81	5.12034
5.82	5.11607
5.83	5.12429
5.84	5.1085
5.85	5.10686
5.86	5.10225
5.87	5.10028
5.88	5.10817
5.89	5.10784
5.9	5.09863
5.91	5.08547
5.92	5.08547
5.93	5.08251
5.94	5.08778
5.95	5.09995
5.96	5.09304
5.97	5.0835
5.98	5.08383
5.99	5.06903
6	5.09436
6.01	5.08284
6.02	5.06311
6.03	5.0562
6.04	5.05126
6.05	5.06113
6.06	5.06771
6.07	5.06311
6.08	5.04403
6.09	5.04041
6.1	5.05653
6.11	5.03416
6.12	5.03482
6.13	5.03482
6.14	5.03712
6.15	5.02297
6.16	5.02758
6.17	5.03284
6.18	5.03021
6.19	5.02363
6.2	5.00981
6.21	5.0085
6.22	5.01442
6.23	5.01508
6.24	5.01738
6.25	5.01508
6.26	5.01146
6.27	4.99995
6.28	5.0006
6.29	4.99435
6.3	4.99962
6.31	5.00093
6.32	4.98613
6.33	4.97593
6.34	4.99797
6.35	4.99008
6.36	4.97823
6.37	4.98021
6.38	4.97955
6.39	4.98284
6.4	4.97922
6.41	4.97264
6.42	4.95521
6.43	4.95916
6.44	4.95356
6.45	4.94369
6.46	4.95883
6.47	4.94962
6.48	4.93942
6.49	4.94172
6.5	4.92922
6.51	4.94205
6.52	4.95422
6.53	4.95027
6.54	4.94863
6.55	4.9335
6.56	4.93975
6.57	4.93942
6.58	4.93975
6.59	4.9233
6.6	4.93119
6.61	4.91442
6.62	4.90323
6.63	4.9279
6.64	4.92264
6.65	4.91409
6.66	4.91376
6.67	4.89007
6.68	4.89303
6.69	4.89369
6.7	4.89303
6.71	4.89501
6.72	4.89797
6.73	4.88382
6.74	4.89271
6.75	4.88909
6.76	4.87988
6.77	4.87231
6.78	4.88021
6.79	4.87198
6.8	4.86935
6.81	4.87099
6.82	4.87132
6.83	4.86113
6.84	4.85652
6.85	4.86771
6.86	4.8756
6.87	4.86902
6.88	4.87692
6.89	4.86803
6.9	4.86211
6.91	4.84501
6.92	4.84402
6.93	4.84895
6.94	4.8427
6.95	4.83645
6.96	4.83448
6.97	4.83777
6.98	4.84797
6.99	4.84369
7	4.84895
7.01	4.83448
7.02	4.8358
7.03	4.84863
7.04	4.83448
7.05	4.82724
7.06	4.82691
7.07	4.81244
7.08	4.81178
7.09	4.81639
7.1	4.82297
7.11	4.83316
7.12	4.82297
7.13	4.81474
7.14	4.80882
7.15	4.81145
7.16	4.82066
7.17	4.80783
7.18	4.79501
7.19	4.79632
7.2	4.79533
7.21	4.78579
7.22	4.79435
7.23	4.78514
7.24	4.78283
7.25	4.78711
7.26	4.79797
7.27	4.78612
7.28	4.78185
7.29	4.78119
7.3	4.77198
7.31	4.78481
7.32	4.77362
7.33	4.76968
7.34	4.77362
7.35	4.77
7.36	4.78053
7.37	4.76606
7.38	4.76408
7.39	4.75981
7.4	4.75981
7.41	4.75882
7.42	4.76112
7.43	4.76869
7.44	4.74961
7.45	4.74566
7.46	4.74994
7.47	4.74994
7.48	4.74303
7.49	4.7506
7.5	4.74796
7.51	4.75323
7.52	4.73941
7.53	4.73777
7.54	4.74533
7.55	4.72724
7.56	4.73415
7.57	4.73382
7.58	4.72395
7.59	4.71967
7.6	4.72132
7.61	4.71573
7.62	4.71869
7.63	4.73086
7.64	4.72428
7.65	4.71803
7.66	4.71573
7.67	4.71671
7.68	4.71408
7.69	4.71474
7.7	4.70421
7.71	4.71606
7.72	4.71145
7.73	4.71046
7.74	4.70981
7.75	4.70388
7.76	4.70619
7.77	4.71046
7.78	4.70421
7.79	4.70487
7.8	4.69829
7.81	4.69566
7.82	4.69204
7.83	4.68119
7.84	4.6802
7.85	4.69533
7.86	4.68645
7.87	4.68448
7.88	4.69303
7.89	4.68184
7.9	4.66474
7.91	4.65849
7.92	4.68349
7.93	4.6802
7.94	4.66309
7.95	4.66803
7.96	4.67757
7.97	4.66638
7.98	4.6598
7.99	4.66474
8	4.6598
8.01	4.66441
8.02	4.66145
8.03	4.65388
8.04	4.64862
8.05	4.64697
8.06	4.65026
8.07	4.65092
8.08	4.65257
8.09	4.65322
8.1	4.64467
8.11	4.65125
8.12	4.64204
8.13	4.64697
8.14	4.64138
8.15	4.64204
8.16	4.64796
8.17	4.62855
8.18	4.63908
8.19	4.62395
8.2	4.61836
8.21	4.63546
8.22	4.62428
8.23	4.62691
8.24	4.62757
8.25	4.62526
8.26	4.62724
8.27	4.61572
8.28	4.60717
8.29	4.61638
8.3	4.62066
8.31	4.62132
8.32	4.61474
8.33	4.61079
8.34	4.61507
8.35	4.59566
8.36	4.60388
8.37	4.6075
8.38	4.61539
8.39	4.60947
8.4	4.61079
8.41	4.58875
8.42	4.58612
8.43	4.59434
8.44	4.59566
8.45	4.60454
8.46	4.5973
8.47	4.59007
8.48	4.59862
8.49	4.58974
8.5	4.59039
8.51	4.59138
8.52	4.595
8.53	4.58513
8.54	4.59171
8.55	4.58118
8.56	4.57987
8.57	4.57526
8.58	4.5927
8.59	4.56901
8.6	4.57625
8.61	4.5621
8.62	4.57099
8.63	4.57164
8.64	4.55355
8.65	4.55881
8.66	4.56539
8.67	4.56868
8.68	4.55914
8.69	4.55618
8.7	4.56704
8.71	4.56539
8.72	4.5677
8.73	4.55355
8.74	4.54631
8.75	4.5598
8.76	4.56013
8.77	4.56934
8.78	4.5552
8.79	4.56671
8.8	4.53973
8.81	4.53414
8.82	4.55092
8.83	4.55322
8.84	4.54401
8.85	4.53414
8.86	4.53677
8.87	4.54697
8.88	4.54006
8.89	4.53875
8.9	4.54697
8.91	4.53973
8.92	4.53941
8.93	4.54171
8.94	4.53052
8.95	4.52033
8.96	4.52526
8.97	4.52559
8.98	4.53809
8.99	4.51967
9	4.5325
9.01	4.51737
9.02	4.52394
9.03	4.53875
9.04	4.51704
9.05	4.52592
9.06	4.53052
9.07	4.50651
9.08	4.50848
9.09	4.51177
9.1	4.51408
9.11	4.51868
9.12	4.5325
9.13	4.51276
9.14	4.51375
9.15	4.5098
9.16	4.51572
9.17	4.50947
9.18	4.50684
9.19	4.51473
9.2	4.51605
9.21	4.49894
9.22	4.5075
9.23	4.50388
9.24	4.49993
9.25	4.50585
9.26	4.50421
9.27	4.50914
9.28	4.50815
9.29	4.49039
9.3	4.49763
9.31	4.50256
9.32	4.50059
9.33	4.48315
9.34	4.49664
9.35	4.49269
9.36	4.48282
9.37	4.49302
9.38	4.48282
9.39	4.4746
9.4	4.47789
9.41	4.47855
9.42	4.47625
9.43	4.48677
9.44	4.47888
9.45	4.48348
9.46	4.49006
9.47	4.48348
9.48	4.47888
9.49	4.4746
9.5	4.48118
9.51	4.47921
9.52	4.46506
9.53	4.47164
9.54	4.47361
9.55	4.47394
9.56	4.48019
9.57	4.47263
9.58	4.47559
9.59	4.46835
9.6	4.46111
9.61	4.45815
9.62	4.46506
9.63	4.46111
9.64	4.46078
9.65	4.46473
9.66	4.46276
9.67	4.44927
9.68	4.4598
9.69	4.4575
9.7	4.44269
9.71	4.45355
9.72	4.4598
9.73	4.4598
9.74	4.46605
9.75	4.44763
9.76	4.45519
9.77	4.44894
9.78	4.44565
9.79	4.44203
9.8	4.44335
9.81	4.43842
9.82	4.44828
9.83	4.45289
9.84	4.45585
9.85	4.44138
9.86	4.43118
9.87	4.45519
9.88	4.45585
9.89	4.44434
9.9	4.44302
9.91	4.43874
9.92	4.4496
9.93	4.45026
9.94	4.44499
9.95	4.43414
9.96	4.44269
9.97	4.43447
9.98	4.43052
9.99	4.43381
10	4.44236
10.01	4.43217
10.02	4.4292
10.03	4.42032
10.04	4.42855
10.05	4.43348
10.06	4.43842
10.07	4.41901
10.08	4.42822
10.09	4.41736
10.1	4.41966
10.11	4.42493
10.12	4.41835
10.13	4.42263
10.14	4.41506
10.15	4.41638
10.16	4.42295
10.17	4.42624
10.18	4.4121
10.19	4.42657
10.2	4.41078
10.21	4.4042
10.22	4.40716
10.23	4.41243
10.24	4.41703
10.25	4.41243
10.26	4.41835
10.27	4.40486
10.28	4.41638
10.29	4.41506
10.3	4.4098
10.31	4.39993
10.32	4.39401
10.33	4.40124
10.34	4.4019
10.35	4.4019
10.36	4.39598
10.37	4.39401
10.38	4.40091
10.39	4.40716
10.4	4.39993
10.41	4.40355
10.42	4.39861
10.43	4.39072
10.44	4.39203
10.45	4.38052
10.46	4.38973
10.47	4.39434
10.48	4.40091
10.49	4.3973
10.5	4.38216
10.51	4.38282
10.52	4.38414
10.53	4.37855
10.54	4.38118
10.55	4.39335
10.56	4.39697
10.57	4.40749
10.58	4.38052
10.59	4.36637
10.6	4.37657
10.61	4.37855
10.62	4.37361
10.63	4.38249
10.64	4.37986
10.65	4.38019
10.66	4.3792
10.67	4.37164
10.68	4.3667
10.69	4.38512
10.7	4.38545
10.71	4.38381
10.72	4.36835
10.73	4.37065
10.74	4.36868
10.75	4.36901
10.76	4.37394
10.77	4.36604
10.78	4.36407
10.79	4.36835
10.8	4.37855
10.81	4.38348
10.82	4.38447
10.83	4.37624
10.84	4.36802
10.85	4.36407
10.86	4.37493
10.87	4.36276
10.88	4.36835
10.89	4.36736
10.9	4.36144
10.91	4.36144
10.92	4.35354
10.93	4.36308
10.94	4.36637
10.95	4.36276
10.96	4.34795
10.97	4.35848
10.98	4.35289
10.99	4.34828
11	4.36045
11.01	4.35914
11.02	4.35848
11.03	4.34631
11.04	4.35124
11.05	4.34203
11.06	4.34729
11.07	4.35618
11.08	4.34203
11.09	4.33907
11.1	4.34762
11.11	4.33677
11.12	4.34697
11.13	4.35585
11.14	4.35354
11.15	4.34927
11.16	4.34006
11.17	4.3542
11.18	4.34302
11.19	4.3417
11.2	4.34532
11.21	4.34302
11.22	4.35979
11.23	4.35025
11.24	4.34499
11.25	4.34828
11.26	4.34006
11.27	4.32887
11.28	4.34039
11.29	4.33414
11.3	4.32591
11.31	4.33545
11.32	4.33512
11.33	4.31933
11.34	4.32558
11.35	4.33282
11.36	4.33677
11.37	4.3292
11.38	4.32525
11.39	4.32361
11.4	4.33841
11.41	4.33315
11.42	4.3315
11.43	4.32295
11.44	4.33315
11.45	4.34433
11.46	4.34006
11.47	4.33019
11.48	4.32789
11.49	4.33249
11.5	4.3315
11.51	4.32723
11.52	4.32361
11.53	4.33019
11.54	4.30321
11.55	4.32196
11.56	4.31637
11.57	4.32756
11.58	4.31177
11.59	4.32493
11.6	4.33019
11.61	4.33118
11.62	4.33841
11.63	4.32756
11.64	4.31341
11.65	4.30585
11.66	4.32262
11.67	4.31242
11.68	4.32098
11.69	4.31571
11.7	4.30617
11.71	4.30288
11.72	4.31703
11.73	4.30585
11.74	4.31374
11.75	4.3065
11.76	4.30157
11.77	4.31275
11.78	4.32591
11.79	4.30617
11.8	4.30519
11.81	4.30387
11.82	4.31275
11.83	4.29762
11.84	4.3167
11.85	4.3144
11.86	4.30782
11.87	4.31045
11.88	4.30519
11.89	4.29104
11.9	4.29598
11.91	4.30519
11.92	4.31539
11.93	4.30288
11.94	4.29696
11.95	4.28874
11.96	4.30058
11.97	4.30552
11.98	4.30585
11.99	4.29565
12	4.29828
12.01	4.30453
12.02	4.28413
12.03	4.30486
12.04	4.30025
12.05	4.30288
12.06	4.29335
12.07	4.27986
12.08	4.29203
12.09	4.29104
12.1	4.3019
12.11	4.2917
12.12	4.28117
12.13	4.2894
12.14	4.29433
12.15	4.29729
12.16	4.28742
12.17	4.2917
12.18	4.29598
12.19	4.29894
12.2	4.29433
12.21	4.28315
12.22	4.28611
12.23	4.29433
12.24	4.29335
12.25	4.29367
12.26	4.27756
12.27	4.27525
12.28	4.28742
12.29	4.30223
12.3	4.27953
12.31	4.28117
12.32	4.28742
12.33	4.2792
12.34	4.27854
12.35	4.29499
12.36	4.29038
12.37	4.27657
12.38	4.28709
12.39	4.28973
12.4	4.27986
12.41	4.29006
12.42	4.2917
12.43	4.29006
12.44	4.28644
12.45	4.29071
12.46	4.29236
12.47	4.28216
12.48	4.28315
12.49	4.27854
12.5	4.28282
12.51	4.28973
12.52	4.28282
12.53	4.27657
12.54	4.27328
12.55	4.27492
12.56	4.26966
12.57	4.28216
12.58	4.2713
12.59	4.27459
12.6	4.2815
12.61	4.27756
12.62	4.27821
12.63	4.28052
12.64	4.28019
12.65	4.2713
12.66	4.27196
12.67	4.27196
12.68	4.26966
12.69	4.2713
12.7	4.27032
12.71	4.26736
12.72	4.27163
12.73	4.26571
12.74	4.27624
12.75	4.27624
12.76	4.28249
12.77	4.27328
12.78	4.26604
12.79	4.27492
12.8	4.2769
12.81	4.27756
12.82	4.2713
12.83	4.26505
12.84	4.25486
12.85	4.26177
12.86	4.26538
12.87	4.27262
12.88	4.28775
12.89	4.26999
12.9	4.26571
12.91	4.26374
12.92	4.28019
12.93	4.27032
12.94	4.26933
12.95	4.27163
12.96	4.25124
12.97	4.26736
12.98	4.27821
12.99	4.26209
13	4.26242
13.01	4.25321
13.02	4.24532
13.03	4.24795
13.04	4.2417
13.05	4.24137
13.06	4.25848
13.07	4.27525
13.08	4.26933
13.09	4.23973
13.1	4.25288
13.11	4.23775
13.12	4.25848
13.13	4.25157
13.14	4.24992
13.15	4.25288
13.16	4.244
13.17	4.25091
13.18	4.23545
13.19	4.23578
13.2	4.24367
13.21	4.23841
13.22	4.24334
13.23	4.26045
13.24	4.2519
13.25	4.25453
13.26	4.25913
13.27	4.26242
13.28	4.25486
13.29	4.24433
13.3	4.24861
13.31	4.24729
13.32	4.24466
13.33	4.2417
13.34	4.23413
13.35	4.24038
13.36	4.24894
13.37	4.25584
13.38	4.23315
13.39	4.24663
13.4	4.25058
13.41	4.22821
13.42	4.24367
13.43	4.24466
13.44	4.24663
13.45	4.23512
13.46	4.23907
13.47	4.24301
13.48	4.23973
13.49	4.2542
13.5	4.26242
13.51	4.24926
13.52	4.23742
13.53	4.23808
13.54	4.2542
13.55	4.24071
13.56	4.23446
13.57	4.23282
13.58	4.24137
13.59	4.23775
13.6	4.23808
13.61	4.23479
13.62	4.23808
13.63	4.24269
13.64	4.24334
13.65	4.24696
13.66	4.23479
13.67	4.22854
13.68	4.2394
13.69	4.23709
13.7	4.23874
13.71	4.24565
13.72	4.23808
13.73	4.2338
