"BIO-KINE ASCII FILE"
"_COMMENT"	"MOS-500 Spectrometer"
"_COMMENT"	"Kinetics measurement"
"_COMMENT"	"Y Unit : Volt,  X Unit : s"
"_COMMENT"	"Excitation wavelength : 380 nm"
"_COMMENT"	"Fentes bandwidth =  1 nm"
"_COMMENT"	"HV= 1000V"
"_COMMENT"	"Timebase  1 =  .01 s   5001 pts"
"_SFM"	"SFM-400 /S  Advanced mode"
"_SFM"	"Ratio : S1: 2.5, S2: 0, S3: 0, S4: 1"
"_SFM"	"Content : S1: , S2: , S3: , S4:"
"_SFM"	"Concentration : S1: , S2: , S3: , S4:"
"_SFM"	"Total volume : 209 µl  Flow : 3.5 mL/s"
"_SFM"	"Acquisition start :  10 ms before stop"
"_SFM"	"cuve=FC-15, s1=10 ml , s2=10 ml , s3=10 ml , s4=1.9 ml"
"_UNITX"	"s"
"_UNITY"	"Volt"
"_DELTAX"	0
"_DATA"
1e-300	2.69658
0.01	2.665
0.02	2.63869
0.03	2.6479
0.04	2.65513
0.05	2.69066
0.06	2.71073
0.07	2.73672
0.08	2.76797
0.09	2.7581
0.1	2.76205
0.11	2.77882
0.12	2.78211
0.13	2.81139
0.14	2.78507
0.15	2.8058
0.16	2.79461
0.17	2.79264
0.18	2.80119
0.19	2.82685
0.2	2.79823
0.21	2.80448
0.22	2.8104
0.23	2.80777
0.24	2.80974
0.25	2.81731
0.26	2.83869
0.27	2.84264
0.28	2.80317
0.29	2.82224
0.3	2.83277
0.31	2.81369
0.32	2.80251
0.33	2.82027
0.34	2.83869
0.35	2.83277
0.36	2.82652
0.37	2.80744
0.38	2.80547
0.39	2.82027
0.4	2.81172
0.41	2.82093
0.42	2.85086
0.43	2.81665
0.44	2.80777
0.45	2.8183
0.46	2.84264
0.47	2.77948
0.48	2.80678
0.49	2.81172
0.5	2.83211
0.51	2.8331
0.52	2.80251
0.53	2.82356
0.54	2.83738
0.55	2.81698
0.56	2.80777
0.57	2.82685
0.58	2.81896
0.59	2.82882
0.6	2.80678
0.61	2.79626
0.62	2.8058
0.63	2.80547
0.64	2.81106
0.65	2.82948
0.66	2.83836
0.67	2.80876
0.68	2.85646
0.69	2.81435
0.7	2.80843
0.71	2.81106
0.72	2.8229
0.73	2.81896
0.74	2.83409
0.75	2.81238
0.76	2.83014
0.77	2.83277
0.78	2.8229
0.79	2.83935
0.8	2.79461
0.81	2.81994
0.82	2.81764
0.83	2.8285
0.84	2.83968
0.85	2.83442
0.86	2.79823
0.87	2.79428
0.88	2.8002
0.89	2.8433
0.9	2.84527
0.91	2.83376
0.92	2.79461
0.93	2.82455
0.94	2.83014
0.95	2.81797
0.96	2.8081
0.97	2.83277
0.98	2.85415
0.99	2.8104
1	2.82389
1.01	2.81106
1.02	2.83771
1.03	2.81599
1.04	2.8081
1.05	2.76895
1.06	2.77224
1.07	2.7877
1.08	2.82948
1.09	2.81271
1.1	2.7956
1.11	2.80909
1.12	2.84363
1.13	2.82981
1.14	2.8331
1.15	2.7877
1.16	2.8206
1.17	2.7933
1.18	2.79724
1.19	2.7752
1.2	2.79034
1.21	2.79889
1.22	2.8104
1.23	2.80053
1.24	2.78836
1.25	2.77422
1.26	2.79593
1.27	2.81994
1.28	2.82224
1.29	2.82027
1.3	2.82422
1.31	2.78672
1.32	2.80086
1.33	2.78047
1.34	2.81961
1.35	2.83014
1.36	2.80514
1.37	2.80744
1.38	2.81271
1.39	2.84461
1.4	2.81369
1.41	2.79856
1.42	2.81896
1.43	2.80086
1.44	2.83606
1.45	2.77586
1.46	2.80284
1.47	2.8081
1.48	2.8058
1.49	2.77685
1.5	2.77389
1.51	2.77356
1.52	2.79001
1.53	2.77981
1.54	2.76895
1.55	2.76468
1.56	2.79724
1.57	2.8058
1.58	2.79165
1.59	2.81172
1.6	2.79395
1.61	2.79626
1.62	2.82422
1.63	2.81731
1.64	2.8058
1.65	2.77191
1.66	2.79001
1.67	2.76402
1.68	2.77224
1.69	2.77323
1.7	2.80152
1.71	2.79988
1.72	2.78803
1.73	2.79988
1.74	2.79922
1.75	2.79132
1.76	2.78803
1.77	2.79165
1.78	2.79099
1.79	2.79099
1.8	2.78968
1.81	2.77586
1.82	2.75349
1.83	2.81797
1.84	2.81731
1.85	2.7729
1.86	2.78441
1.87	2.81271
1.88	2.80448
1.89	2.82126
1.9	2.79955
1.91	2.80547
1.92	2.78705
1.93	2.81402
1.94	2.7877
1.95	2.78639
1.96	2.79001
1.97	2.7502
1.98	2.79264
1.99	2.7933
2	2.79231
2.01	2.77882
2.02	2.77126
2.03	2.79034
2.04	2.80744
2.05	2.80744
2.06	2.7956
2.07	2.78836
2.08	2.79231
2.09	2.80678
2.1	2.77093
2.11	2.79132
2.12	2.77422
2.13	2.7706
2.14	2.78738
2.15	2.79165
2.16	2.8104
2.17	2.83935
2.18	2.79692
2.19	2.79823
2.2	2.78836
2.21	2.78902
2.22	2.77619
2.23	2.75415
2.24	2.80218
2.25	2.81205
2.26	2.77784
2.27	2.78639
2.28	2.78803
2.29	2.80185
2.3	2.83343
2.31	2.78738
2.32	2.76797
2.33	2.79099
2.34	2.79988
2.35	2.79724
2.36	2.77948
2.37	2.8058
2.38	2.75876
2.39	2.76172
2.4	2.77718
2.41	2.77882
2.42	2.75251
2.43	2.77389
2.44	2.77422
2.45	2.76599
2.46	2.76895
2.47	2.80053
2.48	2.7831
2.49	2.78836
2.5	2.81303
2.51	2.78902
2.52	2.79099
2.53	2.76534
2.54	2.74922
2.55	2.75514
2.56	2.78014
2.57	2.77356
2.58	2.73803
2.59	2.75777
2.6	2.78869
2.61	2.79922
2.62	2.82389
2.63	2.77619
2.64	2.79001
2.65	2.78968
2.66	2.80415
2.67	2.77553
2.68	2.77487
2.69	2.76237
2.7	2.79066
2.71	2.80317
2.72	2.80711
2.73	2.78803
2.74	2.7683
2.75	2.79692
2.76	2.77356
2.77	2.78014
2.78	2.80284
2.79	2.76073
2.8	2.76468
2.81	2.78244
2.82	2.77487
2.83	2.77915
2.84	2.7706
2.85	2.79132
2.86	2.78014
2.87	2.7831
2.88	2.78738
2.89	2.79626
2.9	2.75645
2.91	2.78672
2.92	2.7502
2.93	2.76106
2.94	2.76402
2.95	2.77685
2.96	2.77685
2.97	2.77685
2.98	2.77882
2.99	2.78474
3	2.76501
3.01	2.79001
3.02	2.78113
3.03	2.77882
3.04	2.77849
3.05	2.80251
3.06	2.8002
3.07	2.79692
3.08	2.77586
3.09	2.7729
3.1	2.7683
3.11	2.76961
3.12	2.75876
3.13	2.75514
3.14	2.76237
3.15	2.7581
3.16	2.76501
3.17	2.75218
3.18	2.77652
3.19	2.77816
3.2	2.7831
3.21	2.78441
3.22	2.76665
3.23	2.75908
3.24	2.77027
3.25	2.78507
3.26	2.78409
3.27	2.80547
3.28	2.77487
3.29	2.74757
3.3	2.75974
3.31	2.76632
3.32	2.77718
3.33	2.7683
3.34	2.77422
3.35	2.75514
3.36	2.78014
3.37	2.74987
3.38	2.75481
3.39	2.78935
3.4	2.76665
3.41	2.74658
3.42	2.76303
3.43	2.79856
3.44	2.75612
3.45	2.7979
3.46	2.78178
3.47	2.79034
3.48	2.75843
3.49	2.7706
3.5	2.7854
3.51	2.76994
3.52	2.78738
3.53	2.76336
3.54	2.76698
3.55	2.78244
3.56	2.74099
3.57	2.81271
3.58	2.76435
3.59	2.75448
3.6	2.75711
3.61	2.78409
3.62	2.76994
3.63	2.73573
3.64	2.75086
3.65	2.76994
3.66	2.77816
3.67	2.76073
3.68	2.74264
3.69	2.73014
3.7	2.75283
3.71	2.76895
3.72	2.74527
3.73	2.75908
3.74	2.78738
3.75	2.76468
3.76	2.75843
3.77	2.74264
3.78	2.74691
3.79	2.7502
3.8	2.74757
3.81	2.73737
3.82	2.75448
3.83	2.75316
3.84	2.77784
3.85	2.77422
3.86	2.7502
3.87	2.7502
3.88	2.74001
3.89	2.77224
3.9	2.76862
3.91	2.7354
3.92	2.75316
3.93	2.76961
3.94	2.74297
3.95	2.76205
3.96	2.7831
3.97	2.75645
3.98	2.75251
3.99	2.75251
4	2.75415
4.01	2.71961
4.02	2.74955
4.03	2.75645
4.04	2.7604
4.05	2.72849
4.06	2.72454
4.07	2.75547
4.08	2.75744
4.09	2.76435
4.1	2.7752
4.11	2.79297
4.12	2.79724
4.13	2.77553
4.14	2.76797
4.15	2.73737
4.16	2.73178
4.17	2.73079
4.18	2.75547
4.19	2.74461
4.2	2.75744
4.21	2.77948
4.22	2.74922
4.23	2.75382
4.24	2.75251
4.25	2.77915
4.26	2.76994
4.27	2.76007
4.28	2.77389
4.29	2.76797
4.3	2.75481
4.31	2.78869
4.32	2.7502
4.33	2.7456
4.34	2.75908
4.35	2.73836
4.36	2.7877
4.37	2.77751
4.38	2.75514
4.39	2.73408
4.4	2.76961
4.41	2.78277
4.42	2.75974
4.43	2.74724
4.44	2.77816
4.45	2.75876
4.46	2.77915
4.47	2.75777
4.48	2.75876
4.49	2.73902
4.5	2.74889
4.51	2.75251
4.52	2.71797
4.53	2.75876
4.54	2.7683
4.55	2.74329
4.56	2.74527
4.57	2.76205
4.58	2.74691
4.59	2.77422
4.6	2.81402
4.61	2.77455
4.62	2.74593
4.63	2.79461
4.64	2.7808
4.65	2.74428
4.66	2.74099
4.67	2.77027
4.68	2.75777
4.69	2.76468
4.7	2.77455
4.71	2.7502
4.72	2.73211
4.73	2.77126
4.74	2.78606
4.75	2.74889
4.76	2.75218
4.77	2.73902
4.78	2.76172
4.79	2.7604
4.8	2.75283
4.81	2.76764
4.82	2.77126
4.83	2.77849
4.84	2.77224
4.85	2.75251
4.86	2.75908
4.87	2.77191
4.88	2.7683
4.89	2.76501
4.9	2.79066
4.91	2.7581
4.92	2.76435
4.93	2.73935
4.94	2.76303
4.95	2.75514
4.96	2.75053
4.97	2.76468
4.98	2.74658
4.99	2.74395
5	2.76928
5.01	2.73606
5.02	2.76764
5.03	2.74593
5.04	2.72882
5.05	2.7456
5.06	2.74494
5.07	2.79363
5.08	2.75547
5.09	2.71862
5.1	2.75316
5.11	2.7377
5.12	2.77126
5.13	2.76237
5.14	2.78277
5.15	2.76336
5.16	2.7933
5.17	2.74626
5.18	2.76205
5.19	2.76928
5.2	2.73968
5.21	2.75941
5.22	2.75843
5.23	2.78145
5.24	2.76665
5.25	2.76862
5.26	2.74724
5.27	2.715
5.28	2.7479
5.29	2.77191
5.3	2.73507
5.31	2.75514
5.32	2.75547
5.33	2.73902
5.34	2.74132
5.35	2.74889
5.36	2.74626
5.37	2.74658
5.38	2.76402
5.39	2.76106
5.4	2.73737
5.41	2.72356
5.42	2.73672
5.43	2.74658
5.44	2.75612
5.45	2.74165
5.46	2.75678
5.47	2.76106
5.48	2.78705
5.49	2.74395
5.5	2.74165
5.51	2.78836
5.52	2.75974
5.53	2.7581
5.54	2.73968
5.55	2.77191
5.56	2.80843
5.57	2.78113
5.58	2.77323
5.59	2.74626
5.6	2.71731
5.61	2.75744
5.62	2.76106
5.63	2.76961
5.64	2.74297
5.65	2.76336
5.66	2.7604
5.67	2.74231
5.68	2.78474
5.69	2.74593
5.7	2.74001
5.71	2.75185
5.72	2.74231
5.73	2.77751
5.74	2.75119
5.75	2.74823
5.76	2.75974
5.77	2.76764
5.78	2.76632
5.79	2.7752
5.8	2.73573
5.81	2.73639
5.82	2.76566
5.83	2.76172
5.84	2.79034
5.85	2.75645
5.86	2.73047
5.87	2.76139
5.88	2.75152
5.89	2.75612
5.9	2.74955
5.91	2.76369
5.92	2.75941
5.93	2.74329
5.94	2.78376
5.95	2.77652
5.96	2.75678
5.97	2.75777
5.98	2.7581
5.99	2.77685
6	2.75481
6.01	2.76731
6.02	2.74165
6.03	2.73474
6.04	2.74461
6.05	2.74527
6.06	2.7479
6.07	2.76797
6.08	2.74987
6.09	2.74658
6.1	2.78244
6.11	2.75251
6.12	2.76237
6.13	2.75316
6.14	2.72718
6.15	2.75053
6.16	2.77553
6.17	2.75382
6.18	2.76237
6.19	2.75645
6.2	2.75415
6.21	2.75777
6.22	2.78343
6.23	2.73803
6.24	2.73244
6.25	2.75152
6.26	2.73079
6.27	2.75547
6.28	2.75645
6.29	2.74165
6.3	2.76566
6.31	2.74329
6.32	2.74823
6.33	2.74395
6.34	2.74889
6.35	2.76632
6.36	2.74264
6.37	2.73376
6.38	2.75876
6.39	2.7331
6.4	2.73803
6.41	2.73737
6.42	2.74757
6.43	2.72586
6.44	2.74724
6.45	2.71566
6.46	2.73343
6.47	2.72816
6.48	2.74494
6.49	2.71928
6.5	2.71007
6.51	2.71829
6.52	2.73178
6.53	2.77126
6.54	2.73211
6.55	2.72487
6.56	2.73672
6.57	2.75119
6.58	2.70744
6.59	2.73079
6.6	2.73573
6.61	2.73968
6.62	2.75185
6.63	2.74066
6.64	2.73408
6.65	2.74757
6.66	2.74428
6.67	2.75119
6.68	2.71665
6.69	2.72191
6.7	2.7627
6.71	2.73704
6.72	2.73474
6.73	2.78113
6.74	2.75349
6.75	2.73869
6.76	2.74527
6.77	2.7331
6.78	2.73408
6.79	2.75612
6.8	2.7456
6.81	2.74494
6.82	2.74297
6.83	2.74362
6.84	2.75941
6.85	2.71862
6.86	2.72553
6.87	2.7252
6.88	2.75053
6.89	2.74987
6.9	2.74099
6.91	2.72619
6.92	2.73737
6.93	2.74395
6.94	2.74132
6.95	2.72718
6.96	2.75744
6.97	2.7456
6.98	2.73047
6.99	2.73014
7	2.74362
7.01	2.74856
7.02	2.7127
7.03	2.72882
7.04	2.7127
7.05	2.75218
7.06	2.74987
7.07	2.74889
7.08	2.71665
7.09	2.73244
7.1	2.72191
7.11	2.71665
7.12	2.72816
7.13	2.7229
7.14	2.75876
7.15	2.72882
7.16	2.71632
7.17	2.73803
7.18	2.75053
7.19	2.72027
7.2	2.77356
7.21	2.76139
7.22	2.74461
7.23	2.72685
7.24	2.7479
7.25	2.74001
7.26	2.74626
7.27	2.74593
7.28	2.75843
7.29	2.74823
7.3	2.71698
7.31	2.71731
7.32	2.7127
7.33	2.76402
7.34	2.73079
7.35	2.70481
7.36	2.73606
7.37	2.74132
7.38	2.75843
7.39	2.74724
7.4	2.70941
7.41	2.74264
7.42	2.71731
7.43	2.73244
7.44	2.74626
7.45	2.7331
7.46	2.68803
7.47	2.7275
7.48	2.72685
7.49	2.72586
7.5	2.71106
7.51	2.70744
7.52	2.73573
7.53	2.75612
7.54	2.74428
7.55	2.74297
7.56	2.71632
7.57	2.77356
7.58	2.74494
7.59	2.74066
7.6	2.72224
7.61	2.72553
7.62	2.73014
7.63	2.72553
7.64	2.74494
7.65	2.73672
7.66	2.72849
7.67	2.68408
7.68	2.7502
7.69	2.75119
7.7	2.76073
7.71	2.72718
7.72	2.72553
7.73	2.71599
7.74	2.72027
7.75	2.73014
7.76	2.7456
7.77	2.71599
7.78	2.72356
7.79	2.73869
7.8	2.74955
7.81	2.74231
7.82	2.74099
7.83	2.72224
7.84	2.73639
7.85	2.74593
7.86	2.74461
7.87	2.74494
7.88	2.75481
7.89	2.72553
7.9	2.70382
7.91	2.70941
7.92	2.71994
7.93	2.7479
7.94	2.73836
7.95	2.71698
7.96	2.73639
7.97	2.73047
7.98	2.73376
7.99	2.75152
8	2.72718
8.01	2.73376
8.02	2.71073
8.03	2.72125
8.04	2.78244
8.05	2.74823
8.06	2.72783
8.07	2.73441
8.08	2.72553
8.09	2.75612
8.1	2.73935
8.11	2.71369
8.12	2.71435
8.13	2.73145
8.14	2.72981
8.15	2.74001
8.16	2.72125
8.17	2.70316
8.18	2.70349
8.19	2.71632
8.2	2.76632
8.21	2.76402
8.22	2.7479
8.23	2.74593
8.24	2.74494
8.25	2.73672
8.26	2.75678
8.27	2.75547
8.28	2.75119
8.29	2.73145
8.3	2.71829
8.31	2.72619
8.32	2.76369
8.33	2.72915
8.34	2.72981
8.35	2.72718
8.36	2.73211
8.37	2.74231
8.38	2.74987
8.39	2.73836
8.4	2.72422
8.41	2.73606
8.42	2.74626
8.43	2.73672
8.44	2.70053
8.45	2.73639
8.46	2.72685
8.47	2.74066
8.48	2.71797
8.49	2.70316
8.5	2.71303
8.51	2.73507
8.52	2.73178
8.53	2.73408
8.54	2.72882
8.55	2.72356
8.56	2.72948
8.57	2.68935
8.58	2.74165
8.59	2.76468
8.6	2.7354
8.61	2.72158
8.62	2.72454
8.63	2.74395
8.64	2.73573
8.65	2.70612
8.66	2.71698
8.67	2.72816
8.68	2.71895
8.69	2.7331
8.7	2.70579
8.71	2.69921
8.72	2.71073
8.73	2.70185
8.74	2.70974
8.75	2.72948
8.76	2.72487
8.77	2.74033
8.78	2.77619
8.79	2.7229
8.8	2.7275
8.81	2.71731
8.82	2.72553
8.83	2.74856
8.84	2.73343
8.85	2.71435
8.86	2.72718
8.87	2.73803
8.88	2.74165
8.89	2.70777
8.9	2.76106
8.91	2.74428
8.92	2.7229
8.93	2.7081
8.94	2.68967
8.95	2.72191
8.96	2.72586
8.97	2.73507
8.98	2.7331
8.99	2.75777
9	2.70514
9.01	2.73869
9.02	2.74527
9.03	2.7354
9.04	2.73573
9.05	2.70843
9.06	2.74066
9.07	2.75185
9.08	2.74001
9.09	2.73112
9.1	2.70974
9.11	2.74165
9.12	2.74132
9.13	2.70974
9.14	2.74856
9.15	2.74527
9.16	2.71007
9.17	2.71731
9.18	2.73869
9.19	2.74264
9.2	2.71566
9.21	2.6979
9.22	2.71204
9.23	2.74428
9.24	2.75086
9.25	2.73507
9.26	2.74955
9.27	2.72981
9.28	2.71731
9.29	2.73408
9.3	2.73606
9.31	2.7229
9.32	2.74593
9.33	2.71204
9.34	2.70349
9.35	2.72093
9.36	2.70218
9.37	2.71698
9.38	2.71599
9.39	2.74889
9.4	2.73935
9.41	2.72849
9.42	2.7377
9.43	2.74264
9.44	2.74593
9.45	2.70875
9.46	2.7081
9.47	2.71336
9.48	2.71829
9.49	2.7252
9.5	2.74297
9.51	2.73639
9.52	2.7252
9.53	2.7002
9.54	2.69395
9.55	2.74329
9.56	2.75777
9.57	2.77027
9.58	2.76862
9.59	2.73869
9.6	2.75415
9.61	2.71665
9.62	2.73211
9.63	2.72454
9.64	2.7479
9.65	2.73079
9.66	2.72685
9.67	2.73343
9.68	2.74823
9.69	2.71632
9.7	2.73803
9.71	2.72389
9.72	2.73968
9.73	2.74264
9.74	2.73639
9.75	2.71928
9.76	2.71139
9.77	2.74987
9.78	2.69757
9.79	2.71731
9.8	2.71435
9.81	2.71303
9.82	2.72027
9.83	2.73836
9.84	2.74658
9.85	2.72356
9.86	2.70283
9.87	2.70415
9.88	2.71862
9.89	2.71139
9.9	2.73244
9.91	2.73145
9.92	2.71895
9.93	2.70546
9.94	2.69198
9.95	2.71928
9.96	2.7127
9.97	2.71928
9.98	2.70974
9.99	2.70152
10	2.74461
10.01	2.78507
10.02	2.73902
10.03	2.71994
10.04	2.73211
10.05	2.74297
10.06	2.70119
10.07	2.71106
10.08	2.71961
10.09	2.7229
10.1	2.70283
10.11	2.69066
10.12	2.70119
10.13	2.75152
10.14	2.71961
10.15	2.70645
10.16	2.71731
10.17	2.73178
10.18	2.71797
10.19	2.75547
10.2	2.70908
10.21	2.72849
10.22	2.72553
10.23	2.72487
10.24	2.70711
10.25	2.70218
10.26	2.74132
10.27	2.72454
10.28	2.71665
10.29	2.72257
10.3	2.7354
10.31	2.72093
10.32	2.67553
10.33	2.75053
10.34	2.73573
10.35	2.73704
10.36	2.71862
10.37	2.72685
10.38	2.7331
10.39	2.74724
10.4	2.73343
10.41	2.76534
10.42	2.73211
10.43	2.75316
10.44	2.69954
10.45	2.72816
10.46	2.73737
10.47	2.71632
10.48	2.73277
10.49	2.73145
10.5	2.71632
10.51	2.70481
10.52	2.7104
10.53	2.72158
10.54	2.70185
10.55	2.69527
10.56	2.69
10.57	2.69592
10.58	2.71599
10.59	2.7127
10.6	2.7104
10.61	2.71566
10.62	2.71961
10.63	2.70218
10.64	2.71073
10.65	2.71402
10.66	2.75152
10.67	2.71698
10.68	2.72619
10.69	2.72158
10.7	2.70546
10.71	2.72718
10.72	2.70579
10.73	2.73902
10.74	2.71797
10.75	2.73112
10.76	2.71862
10.77	2.71862
10.78	2.72224
10.79	2.73606
10.8	2.73902
10.81	2.70908
10.82	2.69527
10.83	2.73968
10.84	2.74428
10.85	2.71862
10.86	2.71731
10.87	2.75876
10.88	2.73047
10.89	2.71829
10.9	2.71435
10.91	2.70843
10.92	2.73672
10.93	2.75744
10.94	2.72454
10.95	2.71731
10.96	2.7354
10.97	2.68408
10.98	2.73408
10.99	2.73014
11	2.70875
11.01	2.72356
11.02	2.72454
11.03	2.70843
11.04	2.70908
11.05	2.72882
11.06	2.7377
11.07	2.71961
11.08	2.71599
11.09	2.73408
11.1	2.72454
11.11	2.69757
11.12	2.7127
11.13	2.71665
11.14	2.74395
11.15	2.70415
11.16	2.66665
11.17	2.68671
11.18	2.68046
11.19	2.74395
11.2	2.70843
11.21	2.71994
11.22	2.75415
11.23	2.73737
11.24	2.72553
11.25	2.71698
11.26	2.72454
11.27	2.71402
11.28	2.73376
11.29	2.74626
11.3	2.71007
11.31	2.73178
11.32	2.73968
11.33	2.70316
11.34	2.73902
11.35	2.71698
11.36	2.7002
11.37	2.71139
11.38	2.71829
11.39	2.71106
11.4	2.74329
11.41	2.70941
11.42	2.72158
11.43	2.72586
11.44	2.71829
11.45	2.73277
11.46	2.6956
11.47	2.71007
11.48	2.75744
11.49	2.72257
11.5	2.70843
11.51	2.70645
11.52	2.6979
11.53	2.70514
11.54	2.71994
11.55	2.72652
11.56	2.71566
11.57	2.70678
11.58	2.71204
11.59	2.70612
11.6	2.70908
11.61	2.66862
11.62	2.68606
11.63	2.70908
11.64	2.73277
11.65	2.73507
11.66	2.71533
11.67	2.70514
11.68	2.72619
11.69	2.69823
11.7	2.71369
11.71	2.70415
11.72	2.7104
11.73	2.71336
11.74	2.71764
11.75	2.70678
11.76	2.72125
11.77	2.72454
11.78	2.70579
11.79	2.69362
11.8	2.70941
11.81	2.72652
11.82	2.72816
11.83	2.72816
11.84	2.67487
11.85	2.69132
11.86	2.74132
11.87	2.69494
11.88	2.70415
11.89	2.73178
11.9	2.72619
11.91	2.74658
11.92	2.69395
11.93	2.71468
11.94	2.70448
11.95	2.71468
11.96	2.69395
11.97	2.69757
11.98	2.67388
11.99	2.71829
12	2.69
12.01	2.66336
12.02	2.6979
12.03	2.73408
12.04	2.71665
12.05	2.71895
12.06	2.71764
12.07	2.70744
12.08	2.72027
12.09	2.72685
12.1	2.69625
12.11	2.67981
12.12	2.72586
12.13	2.69527
12.14	2.70579
12.15	2.70908
12.16	2.70514
12.17	2.70283
12.18	2.71862
12.19	2.72191
12.2	2.7025
12.21	2.73112
12.22	2.7275
12.23	2.70086
12.24	2.68869
12.25	2.72553
12.26	2.73606
12.27	2.73145
12.28	2.72125
12.29	2.72389
12.3	2.70481
12.31	2.72981
12.32	2.71829
12.33	2.72487
12.34	2.71731
12.35	2.70777
12.36	2.72882
12.37	2.69757
12.38	2.71369
12.39	2.72257
12.4	2.72487
12.41	2.71566
12.42	2.71632
12.43	2.71895
12.44	2.72158
12.45	2.70612
12.46	2.68967
12.47	2.69066
12.48	2.70448
12.49	2.73672
12.5	2.7229
12.51	2.70053
12.52	2.72619
12.53	2.71829
12.54	2.72783
12.55	2.71435
12.56	2.73244
12.57	2.7331
12.58	2.71698
12.59	2.69724
12.6	2.71073
12.61	2.69099
12.62	2.68967
12.63	2.7377
12.64	2.69461
12.65	2.7025
12.66	2.72487
12.67	2.73079
12.68	2.72882
12.69	2.72027
12.7	2.70053
12.71	2.68408
12.72	2.70514
12.73	2.71698
12.74	2.70382
12.75	2.7331
12.76	2.72356
12.77	2.71961
12.78	2.715
12.79	2.70053
12.8	2.68408
12.81	2.68013
12.82	2.68737
12.83	2.72422
12.84	2.71862
12.85	2.70514
12.86	2.7025
12.87	2.70875
12.88	2.71237
12.89	2.7127
12.9	2.69132
12.91	2.72981
12.92	2.69231
12.93	2.71435
12.94	2.73047
12.95	2.70349
12.96	2.70711
12.97	2.7252
12.98	2.71994
12.99	2.71599
13	2.69527
13.01	2.71204
13.02	2.67421
13.03	2.67619
13.04	2.69889
13.05	2.68935
13.06	2.6979
13.07	2.70612
13.08	2.71797
13.09	2.72093
13.1	2.71994
13.11	2.7081
13.12	2.66566
13.13	2.7229
13.14	2.70546
13.15	2.69132
13.16	2.70777
13.17	2.70546
13.18	2.70941
13.19	2.72356
13.2	2.72125
13.21	2.72652
13.22	2.72652
13.23	2.71106
13.24	2.7331
13.25	2.72093
13.26	2.72849
13.27	2.71862
13.28	2.74593
13.29	2.73968
13.3	2.73902
13.31	2.71632
13.32	2.73573
13.33	2.71237
13.34	2.68869
13.35	2.70908
13.36	2.70481
13.37	2.70645
13.38	2.72718
13.39	2.71731
13.4	2.70283
13.41	2.69132
13.42	2.69954
13.43	2.72652
13.44	2.70382
13.45	2.74297
13.46	2.71468
13.47	2.73902
13.48	2.71632
13.49	2.69329
13.5	2.72882
13.51	2.76172
13.52	2.74198
13.53	2.72323
13.54	2.6956
13.55	2.71895
13.56	2.69592
13.57	2.69395
13.58	2.71402
13.59	2.68244
13.6	2.70875
13.61	2.72356
13.62	2.72586
13.63	2.69165
13.64	2.71468
13.65	2.70185
13.66	2.71007
13.67	2.68178
13.68	2.67717
13.69	2.71007
13.7	2.71599
13.71	2.71533
13.72	2.71435
13.73	2.69428
13.74	2.73211
