"BIO-KINE ASCII FILE"
"_COMMENT"	"MOS-500 Spectrometer"
"_COMMENT"	"Kinetics measurement"
"_COMMENT"	"Y Unit : Volt,  X Unit : s"
"_COMMENT"	"Excitation wavelength : 380 nm"
"_COMMENT"	"Fentes bandwidth =  1 nm"
"_COMMENT"	"HV= 1000V"
"_COMMENT"	"Timebase  1 =  .01 s   5001 pts"
"_SFM"	"SFM-400 /S  Advanced mode"
"_SFM"	"Ratio : S1: 2.5, S2: 0, S3: 0, S4: 1"
"_SFM"	"Content : S1: , S2: , S3: , S4:"
"_SFM"	"Concentration : S1: , S2: , S3: , S4:"
"_SFM"	"Total volume : 209 µl  Flow : 3.5 mL/s"
"_SFM"	"Acquisition start :  10 ms before stop"
"_SFM"	"cuve=FC-15, s1=10 ml , s2=10 ml , s3=10 ml , s4=1.9 ml"
"_UNITX"	"s"
"_UNITY"	"Volt"
"_DELTAX"	0
"_DATA"
1e-300	2.665
0.01	2.65316
0.02	2.67421
0.03	2.68869
0.04	2.71369
0.05	2.75053
0.06	2.78672
0.07	2.77948
0.08	2.83277
0.09	2.82093
0.1	2.81863
0.11	2.83573
0.12	2.85415
0.13	2.86238
0.14	2.8683
0.15	2.866
0.16	2.8535
0.17	2.85876
0.18	2.87323
0.19	2.8535
0.2	2.82619
0.21	2.84264
0.22	2.8433
0.23	2.86402
0.24	2.88343
0.25	2.87389
0.26	2.88047
0.27	2.85119
0.28	2.84725
0.29	2.87587
0.3	2.86008
0.31	2.85909
0.32	2.86402
0.33	2.88014
0.34	2.87587
0.35	2.89001
0.36	2.89955
0.37	2.87883
0.38	2.84396
0.39	2.88409
0.4	2.90712
0.41	2.90448
0.42	2.88047
0.43	2.84297
0.44	2.86435
0.45	2.8456
0.46	2.86665
0.47	2.86896
0.48	2.86731
0.49	2.89692
0.5	2.87389
0.51	2.87587
0.52	2.91106
0.53	2.87488
0.54	2.8831
0.55	2.86863
0.56	2.86205
0.57	2.88244
0.58	2.86797
0.59	2.86764
0.6	2.85909
0.61	2.87883
0.62	2.841
0.63	2.86205
0.64	2.89889
0.65	2.86534
0.66	2.86172
0.67	2.85218
0.68	2.8558
0.69	2.85054
0.7	2.85415
0.71	2.86633
0.72	2.89429
0.73	2.86271
0.74	2.8683
0.75	2.84461
0.76	2.83047
0.77	2.866
0.78	2.86106
0.79	2.86764
0.8	2.85711
0.81	2.85942
0.82	2.87784
0.83	2.86665
0.84	2.85481
0.85	2.82389
0.86	2.88047
0.87	2.87948
0.88	2.86139
0.89	2.86205
0.9	2.86698
0.91	2.85054
0.92	2.86336
0.93	2.83771
0.94	2.84659
0.95	2.87948
0.96	2.83836
0.97	2.82553
0.98	2.84659
0.99	2.84067
1	2.8808
1.01	2.85251
1.02	2.86106
1.03	2.86994
1.04	2.88376
1.05	2.86764
1.06	2.86106
1.07	2.88804
1.08	2.86567
1.09	2.8706
1.1	2.86336
1.11	2.8604
1.12	2.85679
1.13	2.8354
1.14	2.841
1.15	2.84692
1.16	2.86994
1.17	2.85448
1.18	2.84593
1.19	2.83902
1.2	2.86994
1.21	2.80711
1.22	2.86304
1.23	2.87883
1.24	2.87981
1.25	2.84659
1.26	2.88047
1.27	2.84823
1.28	2.84922
1.29	2.84067
1.3	2.86139
1.31	2.8285
1.32	2.8581
1.33	2.86304
1.34	2.84034
1.35	2.8558
1.36	2.85152
1.37	2.83507
1.38	2.84461
1.39	2.84198
1.4	2.85481
1.41	2.8558
1.42	2.88639
1.43	2.83869
1.44	2.88047
1.45	2.86139
1.46	2.8683
1.47	2.85317
1.48	2.84593
1.49	2.83014
1.5	2.84593
1.51	2.8581
1.52	2.84856
1.53	2.84889
1.54	2.86896
1.55	2.84429
1.56	2.82751
1.57	2.83442
1.58	2.87455
1.59	2.866
1.6	2.84461
1.61	2.87685
1.62	2.83803
1.63	2.83672
1.64	2.84725
1.65	2.83475
1.66	2.88606
1.67	2.85613
1.68	2.83606
1.69	2.8456
1.7	2.8479
1.71	2.81534
1.72	2.84922
1.73	2.85382
1.74	2.85448
1.75	2.81501
1.76	2.81994
1.77	2.8479
1.78	2.86172
1.79	2.84955
1.8	2.87027
1.81	2.88146
1.82	2.84231
1.83	2.83639
1.84	2.82488
1.85	2.85152
1.86	2.85284
1.87	2.85317
1.88	2.84889
1.89	2.82455
1.9	2.85843
1.91	2.85382
1.92	2.82981
1.93	2.84659
1.94	2.8285
1.95	2.83672
1.96	2.84527
1.97	2.82488
1.98	2.86896
1.99	2.86764
2	2.84725
2.01	2.8604
2.02	2.8331
2.03	2.8104
2.04	2.88343
2.05	2.85711
2.06	2.83705
2.07	2.8535
2.08	2.87422
2.09	2.85218
2.1	2.86961
2.11	2.80942
2.12	2.84626
2.13	2.82817
2.14	2.81073
2.15	2.83277
2.16	2.8229
2.17	2.83178
2.18	2.81534
2.19	2.85777
2.2	2.82652
2.21	2.82619
2.22	2.82882
2.23	2.84955
2.24	2.81961
2.25	2.84264
2.26	2.8229
2.27	2.8183
2.28	2.81896
2.29	2.84231
2.3	2.84889
2.31	2.83442
2.32	2.8229
2.33	2.8433
2.34	2.81764
2.35	2.8785
2.36	2.84856
2.37	2.83014
2.38	2.83475
2.39	2.81271
2.4	2.8354
2.41	2.82784
2.42	2.83705
2.43	2.8581
2.44	2.84527
2.45	2.85613
2.46	2.84494
2.47	2.81435
2.48	2.82488
2.49	2.84988
2.5	2.85185
2.51	2.86698
2.52	2.84889
2.53	2.87027
2.54	2.82224
2.55	2.8081
2.56	2.81468
2.57	2.84231
2.58	2.83442
2.59	2.83902
2.6	2.83803
2.61	2.81271
2.62	2.82685
2.63	2.83705
2.64	2.81863
2.65	2.80974
2.66	2.86534
2.67	2.84165
2.68	2.81172
2.69	2.79889
2.7	2.79165
2.71	2.85284
2.72	2.83771
2.73	2.8081
2.74	2.8058
2.75	2.84034
2.76	2.81632
2.77	2.84725
2.78	2.85679
2.79	2.82751
2.8	2.84593
2.81	2.80349
2.82	2.84659
2.83	2.80349
2.84	2.83343
2.85	2.84198
2.86	2.81797
2.87	2.81599
2.88	2.81863
2.89	2.80481
2.9	2.84264
2.91	2.87356
2.92	2.85613
2.93	2.84626
2.94	2.8456
2.95	2.84922
2.96	2.8354
2.97	2.8354
2.98	2.81961
2.99	2.85251
3	2.83639
3.01	2.80645
3.02	2.82652
3.03	2.80777
3.04	2.80086
3.05	2.82422
3.06	2.81369
3.07	2.84363
3.08	2.79757
3.09	2.79461
3.1	2.8285
3.11	2.83869
3.12	2.82323
3.13	2.841
3.14	2.79132
3.15	2.81468
3.16	2.8104
3.17	2.82981
3.18	2.83014
3.19	2.81336
3.2	2.82784
3.21	2.84034
3.22	2.82817
3.23	2.81336
3.24	2.78573
3.25	2.82192
3.26	2.80942
3.27	2.82126
3.28	2.81764
3.29	2.8104
3.3	2.83178
3.31	2.8229
3.32	2.81106
3.33	2.84001
3.34	2.80547
3.35	2.80415
3.36	2.80974
3.37	2.79132
3.38	2.83738
3.39	2.80613
3.4	2.78507
3.41	2.8433
3.42	2.82619
3.43	2.80185
3.44	2.83803
3.45	2.85547
3.46	2.85481
3.47	2.82126
3.48	2.80547
3.49	2.78113
3.5	2.78113
3.51	2.80613
3.52	2.82652
3.53	2.77915
3.54	2.82685
3.55	2.83475
3.56	2.80086
3.57	2.79692
3.58	2.81731
3.59	2.79363
3.6	2.82422
3.61	2.81435
3.62	2.81106
3.63	2.81961
3.64	2.83014
3.65	2.79922
3.66	2.82817
3.67	2.82553
3.68	2.81501
3.69	2.79757
3.7	2.79889
3.71	2.80317
3.72	2.81928
3.73	2.82619
3.74	2.81896
3.75	2.83672
3.76	2.8081
3.77	2.81007
3.78	2.8229
3.79	2.81205
3.8	2.8104
3.81	2.84231
3.82	2.82718
3.83	2.80349
3.84	2.80843
3.85	2.83935
3.86	2.83442
3.87	2.8229
3.88	2.79724
3.89	2.79889
3.9	2.80448
3.91	2.8183
3.92	2.81402
3.93	2.84692
3.94	2.82159
3.95	2.78836
3.96	2.8058
3.97	2.80547
3.98	2.83935
3.99	2.841
4	2.84461
4.01	2.81698
4.02	2.81994
4.03	2.83146
4.04	2.80645
4.05	2.78047
4.06	2.82488
4.07	2.80086
4.08	2.81534
4.09	2.84297
4.1	2.81139
4.11	2.80514
4.12	2.81402
4.13	2.81797
4.14	2.81599
4.15	2.81172
4.16	2.82751
4.17	2.8308
4.18	2.79856
4.19	2.80678
4.2	2.82323
4.21	2.78705
4.22	2.84132
4.23	2.81468
4.24	2.79889
4.25	2.79757
4.26	2.78573
4.27	2.7729
4.28	2.80119
4.29	2.81863
4.3	2.81369
4.31	2.80481
4.32	2.80942
4.33	2.79363
4.34	2.84067
4.35	2.85251
4.36	2.82323
4.37	2.82553
4.38	2.82027
4.39	2.77619
4.4	2.80317
4.41	2.81731
4.42	2.8058
4.43	2.81007
4.44	2.79692
4.45	2.79988
4.46	2.80349
4.47	2.81402
4.48	2.79626
4.49	2.83343
4.5	2.8433
4.51	2.81139
4.52	2.81632
4.53	2.81139
4.54	2.77685
4.55	2.7729
4.56	2.79692
4.57	2.80349
4.58	2.81599
4.59	2.82652
4.6	2.80909
4.61	2.79494
4.62	2.81369
4.63	2.81961
4.64	2.79856
4.65	2.78672
4.66	2.8104
4.67	2.81073
4.68	2.8058
4.69	2.82093
4.7	2.7956
4.71	2.78902
4.72	2.77093
4.73	2.8058
4.74	2.82586
4.75	2.80119
4.76	2.79428
4.77	2.8104
4.78	2.81994
4.79	2.78738
4.8	2.80974
4.81	2.80218
4.82	2.82224
4.83	2.82652
4.84	2.8331
4.85	2.82915
4.86	2.78705
4.87	2.82652
4.88	2.8285
4.89	2.81271
4.9	2.81139
4.91	2.80942
4.92	2.79527
4.93	2.8183
4.94	2.78902
4.95	2.81271
4.96	2.79527
4.97	2.7831
4.98	2.82422
4.99	2.81665
5	2.79659
5.01	2.80185
5.02	2.80152
5.03	2.8183
5.04	2.8229
5.05	2.78277
5.06	2.78145
5.07	2.80678
5.08	2.81731
5.09	2.79034
5.1	2.82948
5.11	2.82224
5.12	2.80086
5.13	2.81797
5.14	2.81961
5.15	2.76764
5.16	2.8002
5.17	2.79297
5.18	2.7956
5.19	2.81435
5.2	2.80284
5.21	2.81435
5.22	2.81139
5.23	2.79659
5.24	2.79034
5.25	2.77751
5.26	2.81863
5.27	2.80843
5.28	2.82718
5.29	2.81172
5.3	2.80942
5.31	2.80711
5.32	2.82784
5.33	2.78902
5.34	2.7979
5.35	2.83014
5.36	2.81106
5.37	2.81698
5.38	2.82389
5.39	2.79527
5.4	2.80547
5.41	2.80317
5.42	2.79428
5.43	2.79428
5.44	2.79066
5.45	2.78902
5.46	2.79659
5.47	2.80744
5.48	2.80415
5.49	2.83935
5.5	2.79692
5.51	2.79593
5.52	2.78606
5.53	2.79757
5.54	2.79198
5.55	2.78836
5.56	2.82356
5.57	2.80613
5.58	2.76698
5.59	2.81238
5.6	2.79626
5.61	2.79165
5.62	2.80613
5.63	2.79724
5.64	2.81599
5.65	2.81928
5.66	2.81797
5.67	2.80942
5.68	2.77553
5.69	2.77849
5.7	2.79395
5.71	2.77685
5.72	2.7933
5.73	2.78277
5.74	2.79889
5.75	2.78935
5.76	2.77685
5.77	2.81764
5.78	2.81007
5.79	2.79264
5.8	2.78869
5.81	2.78211
5.82	2.7831
5.83	2.77159
5.84	2.7752
5.85	2.82093
5.86	2.79034
5.87	2.82093
5.88	2.81599
5.89	2.82257
5.9	2.78047
5.91	2.77422
5.92	2.77915
5.93	2.79066
5.94	2.81336
5.95	2.77093
5.96	2.80086
5.97	2.78738
5.98	2.78441
5.99	2.79231
6	2.80317
6.01	2.7683
6.02	2.80514
6.03	2.8058
6.04	2.81896
6.05	2.80284
6.06	2.78277
6.07	2.80382
6.08	2.77487
6.09	2.78573
6.1	2.7877
6.11	2.77553
6.12	2.77816
6.13	2.80185
6.14	2.8058
6.15	2.81073
6.16	2.7979
6.17	2.81468
6.18	2.79955
6.19	2.78441
6.2	2.81863
6.21	2.79132
6.22	2.7808
6.23	2.78573
6.24	2.78507
6.25	2.7877
6.26	2.78573
6.27	2.77751
6.28	2.77027
6.29	2.78014
6.3	2.7706
6.31	2.78343
6.32	2.80448
6.33	2.78705
6.34	2.8183
6.35	2.80547
6.36	2.76895
6.37	2.79593
6.38	2.81896
6.39	2.77224
6.4	2.77455
6.41	2.80843
6.42	2.78738
6.43	2.78968
6.44	2.77224
6.45	2.79527
6.46	2.75974
6.47	2.78474
6.48	2.80119
6.49	2.82784
6.5	2.80152
6.51	2.81534
6.52	2.79889
6.53	2.77718
6.54	2.77652
6.55	2.77981
6.56	2.77816
6.57	2.78211
6.58	2.79823
6.59	2.78606
6.6	2.80711
6.61	2.79856
6.62	2.79297
6.63	2.80218
6.64	2.76764
6.65	2.78113
6.66	2.81106
6.67	2.79955
6.68	2.81468
6.69	2.7627
6.7	2.76205
6.71	2.81534
6.72	2.78672
6.73	2.80481
6.74	2.80086
6.75	2.79626
6.76	2.76336
6.77	2.77487
6.78	2.74823
6.79	2.78507
6.8	2.77422
6.81	2.80843
6.82	2.80876
6.83	2.80119
6.84	2.78244
6.85	2.79165
6.86	2.79099
6.87	2.78935
6.88	2.79724
6.89	2.80711
6.9	2.77784
6.91	2.77882
6.92	2.78113
6.93	2.78145
6.94	2.77257
6.95	2.7979
6.96	2.78968
6.97	2.81731
6.98	2.7877
6.99	2.79099
7	2.79922
7.01	2.77948
7.02	2.79231
7.03	2.78606
7.04	2.78474
7.05	2.78047
7.06	2.80317
7.07	2.79198
7.08	2.73211
7.09	2.77751
7.1	2.81073
7.11	2.76994
7.12	2.79527
7.13	2.80777
7.14	2.81139
7.15	2.77915
7.16	2.75218
7.17	2.77948
7.18	2.81764
7.19	2.76862
7.2	2.76599
7.21	2.76764
7.22	2.79066
7.23	2.79692
7.24	2.79264
7.25	2.7808
7.26	2.79988
7.27	2.79659
7.28	2.78409
7.29	2.77849
7.3	2.76928
7.31	2.77882
7.32	2.75843
7.33	2.7354
7.34	2.77685
7.35	2.75251
7.36	2.77487
7.37	2.74823
7.38	2.73376
7.39	2.77027
7.4	2.78014
7.41	2.78606
7.42	2.80086
7.43	2.76994
7.44	2.77126
7.45	2.75876
7.46	2.74823
7.47	2.78409
7.48	2.79165
7.49	2.77356
7.5	2.8285
7.51	2.80349
7.52	2.80284
7.53	2.84494
7.54	2.81205
7.55	2.77981
7.56	2.77422
7.57	2.8002
7.58	2.7877
7.59	2.76073
7.6	2.76534
7.61	2.78376
7.62	2.76764
7.63	2.75908
7.64	2.78639
7.65	2.7979
7.66	2.78441
7.67	2.77948
7.68	2.78211
7.69	2.81007
7.7	2.75448
7.71	2.74626
7.72	2.76961
7.73	2.76369
7.74	2.76435
7.75	2.77455
7.76	2.78803
7.77	2.76073
7.78	2.77915
7.79	2.75251
7.8	2.76435
7.81	2.76007
7.82	2.77224
7.83	2.78639
7.84	2.78705
7.85	2.76961
7.86	2.75514
7.87	2.78474
7.88	2.79001
7.89	2.78047
7.9	2.76994
7.91	2.76764
7.92	2.75547
7.93	2.76862
7.94	2.7581
7.95	2.73672
7.96	2.73935
7.97	2.76402
7.98	2.75119
7.99	2.76501
8	2.74395
8.01	2.77356
8.02	2.77126
8.03	2.78211
8.04	2.78803
8.05	2.78902
8.06	2.7752
8.07	2.78145
8.08	2.79198
8.09	2.79099
8.1	2.77948
8.11	2.7752
8.12	2.76534
8.13	2.8229
8.14	2.76501
8.15	2.7729
8.16	2.78869
8.17	2.75876
8.18	2.77159
8.19	2.75547
8.2	2.79264
8.21	2.78606
8.22	2.80152
8.23	2.7683
8.24	2.76106
8.25	2.76928
8.26	2.7831
8.27	2.7683
8.28	2.73408
8.29	2.76237
8.3	2.78968
8.31	2.77685
8.32	2.78803
8.33	2.76797
8.34	2.80349
8.35	2.79198
8.36	2.75711
8.37	2.75316
8.38	2.75086
8.39	2.76468
8.4	2.77948
8.41	2.76928
8.42	2.79198
8.43	2.77257
8.44	2.74987
8.45	2.78409
8.46	2.76336
8.47	2.79297
8.48	2.77323
8.49	2.76007
8.5	2.79099
8.51	2.78606
8.52	2.78014
8.53	2.78376
8.54	2.79922
8.55	2.7627
8.56	2.78277
8.57	2.77389
8.58	2.78047
8.59	2.77652
8.6	2.77093
8.61	2.78145
8.62	2.77323
8.63	2.78441
8.64	2.79165
8.65	2.76961
8.66	2.77126
8.67	2.76468
8.68	2.80744
8.69	2.77126
8.7	2.78014
8.71	2.7604
8.72	2.78507
8.73	2.75908
8.74	2.78014
8.75	2.75185
8.76	2.77224
8.77	2.80547
8.78	2.77981
8.79	2.75283
8.8	2.75678
8.81	2.78277
8.82	2.77323
8.83	2.7706
8.84	2.77422
8.85	2.76895
8.86	2.7627
8.87	2.75152
8.88	2.76797
8.89	2.73935
8.9	2.73014
8.91	2.75744
8.92	2.76632
8.93	2.78869
8.94	2.74395
8.95	2.74362
8.96	2.74691
8.97	2.78277
8.98	2.76632
8.99	2.76468
9	2.76237
9.01	2.76369
9.02	2.77224
9.03	2.77652
9.04	2.77191
9.05	2.75678
9.06	2.76632
9.07	2.77586
9.08	2.76665
9.09	2.8081
9.1	2.78376
9.11	2.7627
9.12	2.74691
9.13	2.74593
9.14	2.7479
9.15	2.77619
9.16	2.77356
9.17	2.79034
9.18	2.77093
9.19	2.79231
9.2	2.73803
9.21	2.75349
9.22	2.7581
9.23	2.76139
9.24	2.78376
9.25	2.76303
9.26	2.75744
9.27	2.80317
9.28	2.80086
9.29	2.76106
9.3	2.77389
9.31	2.77224
9.32	2.75415
9.33	2.78409
9.34	2.78738
9.35	2.77849
9.36	2.78343
9.37	2.80218
9.38	2.7604
9.39	2.76928
9.4	2.77751
9.41	2.76073
9.42	2.77224
9.43	2.76961
9.44	2.77718
9.45	2.75908
9.46	2.76862
9.47	2.77159
9.48	2.74099
9.49	2.77948
9.5	2.73277
9.51	2.7558
9.52	2.75152
9.53	2.75876
9.54	2.75514
9.55	2.78441
9.56	2.79001
9.57	2.79527
9.58	2.79001
9.59	2.79856
9.6	2.80317
9.61	2.8058
9.62	2.78968
9.63	2.79034
9.64	2.80251
9.65	2.78705
9.66	2.77816
9.67	2.79099
9.68	2.77652
9.69	2.78639
9.7	2.76599
9.71	2.74955
9.72	2.74757
9.73	2.75876
9.74	2.72487
9.75	2.76402
9.76	2.77586
9.77	2.75349
9.78	2.76172
9.79	2.74658
9.8	2.76764
9.81	2.77685
9.82	2.79889
9.83	2.79889
9.84	2.7854
9.85	2.75876
9.86	2.74987
9.87	2.74691
9.88	2.77652
9.89	2.7956
9.9	2.77224
9.91	2.75678
9.92	2.75974
9.93	2.74461
9.94	2.73639
9.95	2.76468
9.96	2.76797
9.97	2.74461
9.98	2.74658
9.99	2.75382
10	2.77389
10.01	2.77948
10.02	2.80284
10.03	2.77257
10.04	2.75415
10.05	2.75316
10.06	2.73474
10.07	2.76172
10.08	2.7581
10.09	2.74033
10.1	2.76435
10.11	2.7752
10.12	2.76961
10.13	2.75382
10.14	2.75908
10.15	2.76862
10.16	2.7956
10.17	2.75152
10.18	2.75711
10.19	2.75382
10.2	2.77751
10.21	2.79988
10.22	2.7683
10.23	2.77487
10.24	2.75744
10.25	2.74724
10.26	2.79034
10.27	2.78836
10.28	2.76336
10.29	2.75283
10.3	2.75547
10.31	2.77356
10.32	2.76764
10.33	2.78507
10.34	2.75843
10.35	2.76369
10.36	2.78606
10.37	2.78211
10.38	2.80086
10.39	2.79889
10.4	2.78441
10.41	2.77652
10.42	2.77685
10.43	2.78836
10.44	2.76764
10.45	2.7854
10.46	2.80185
10.47	2.77224
10.48	2.77586
10.49	2.77455
10.5	2.76369
10.51	2.74856
10.52	2.77159
10.53	2.7581
10.54	2.77422
10.55	2.76895
10.56	2.77159
10.57	2.77553
10.58	2.77915
10.59	2.79889
10.6	2.77093
10.61	2.74658
10.62	2.75316
10.63	2.74987
10.64	2.77224
10.65	2.76073
10.66	2.7581
10.67	2.7581
10.68	2.7877
10.69	2.78145
10.7	2.74889
10.71	2.77553
10.72	2.78738
10.73	2.73639
10.74	2.78178
10.75	2.75711
10.76	2.7627
10.77	2.77455
10.78	2.74987
10.79	2.72783
10.8	2.77159
10.81	2.78738
10.82	2.75053
10.83	2.73343
10.84	2.72158
10.85	2.74231
10.86	2.76632
10.87	2.77718
10.88	2.75086
10.89	2.75876
10.9	2.76106
10.91	2.72158
10.92	2.74329
10.93	2.74757
10.94	2.75218
10.95	2.74724
10.96	2.76303
10.97	2.73244
10.98	2.76534
10.99	2.75053
11	2.76895
11.01	2.74757
11.02	2.77553
11.03	2.75711
11.04	2.76402
11.05	2.75382
11.06	2.77257
11.07	2.79099
11.08	2.74955
11.09	2.77685
11.1	2.76468
11.11	2.75547
11.12	2.76205
11.13	2.76303
11.14	2.75316
11.15	2.77027
11.16	2.7854
11.17	2.76172
11.18	2.75744
11.19	2.80251
11.2	2.75316
11.21	2.76073
11.22	2.74955
11.23	2.75645
11.24	2.76632
11.25	2.73935
11.26	2.74987
11.27	2.77586
11.28	2.79494
11.29	2.77882
11.3	2.76303
11.31	2.73079
11.32	2.7558
11.33	2.76665
11.34	2.75448
11.35	2.76007
11.36	2.74165
11.37	2.74658
11.38	2.75152
11.39	2.75382
11.4	2.76007
11.41	2.75612
11.42	2.75612
11.43	2.73408
11.44	2.75843
11.45	2.74823
11.46	2.79264
11.47	2.77422
11.48	2.79297
11.49	2.77981
11.5	2.76303
11.51	2.79659
11.52	2.76303
11.53	2.73902
11.54	2.74132
11.55	2.76007
11.56	2.7479
11.57	2.77224
11.58	2.75481
11.59	2.76961
11.6	2.74658
11.61	2.75547
11.62	2.75941
11.63	2.77323
11.64	2.75612
11.65	2.75777
11.66	2.74823
11.67	2.73968
11.68	2.75514
11.69	2.76139
11.7	2.76599
11.71	2.76928
11.72	2.77323
11.73	2.78573
11.74	2.77915
11.75	2.77981
11.76	2.75876
11.77	2.75908
11.78	2.76237
11.79	2.76599
11.8	2.7558
11.81	2.77915
11.82	2.75514
11.83	2.75843
11.84	2.76435
11.85	2.77487
11.86	2.77849
11.87	2.76303
11.88	2.77652
11.89	2.75645
11.9	2.78047
11.91	2.76862
11.92	2.79099
11.93	2.80382
11.94	2.78376
11.95	2.73145
11.96	2.75415
11.97	2.72981
11.98	2.73606
11.99	2.7831
12	2.76764
12.01	2.73836
12.02	2.7479
12.03	2.7706
12.04	2.78145
12.05	2.73803
12.06	2.7581
12.07	2.73112
12.08	2.77422
12.09	2.77553
12.1	2.78014
12.11	2.77685
12.12	2.74922
12.13	2.74987
12.14	2.73968
12.15	2.72586
12.16	2.76994
12.17	2.7581
12.18	2.73145
12.19	2.75251
12.2	2.74823
12.21	2.75185
12.22	2.74593
12.23	2.74395
12.24	2.75185
12.25	2.76435
12.26	2.75678
12.27	2.77586
12.28	2.76237
12.29	2.72093
12.3	2.73639
12.31	2.74724
12.32	2.74626
12.33	2.76599
12.34	2.75086
12.35	2.78441
12.36	2.77455
12.37	2.78145
12.38	2.74395
12.39	2.76402
12.4	2.76698
12.41	2.77751
12.42	2.75448
12.43	2.77257
12.44	2.72454
12.45	2.7502
12.46	2.77652
12.47	2.7456
12.48	2.75974
12.49	2.75678
12.5	2.73737
12.51	2.78014
12.52	2.76665
12.53	2.76303
12.54	2.76468
12.55	2.80119
12.56	2.78573
12.57	2.75119
12.58	2.75645
12.59	2.76928
12.6	2.7502
12.61	2.76073
12.62	2.73737
12.63	2.74658
12.64	2.75185
12.65	2.76632
12.66	2.74461
12.67	2.79066
12.68	2.74329
12.69	2.76073
12.7	2.75876
12.71	2.73178
12.72	2.73277
12.73	2.75415
12.74	2.71764
12.75	2.76566
12.76	2.78902
12.77	2.74099
12.78	2.74231
12.79	2.76007
12.8	2.73474
12.81	2.74757
12.82	2.78409
12.83	2.75908
12.84	2.7558
12.85	2.76402
12.86	2.75283
12.87	2.75547
12.88	2.76895
12.89	2.74922
12.9	2.74297
12.91	2.71007
12.92	2.73737
12.93	2.72224
12.94	2.76566
12.95	2.74987
12.96	2.76961
12.97	2.75415
12.98	2.74724
12.99	2.73079
13	2.74428
13.01	2.75053
13.02	2.73343
13.03	2.71632
13.04	2.71829
13.05	2.74823
13.06	2.76599
13.07	2.76402
13.08	2.77356
13.09	2.76632
13.1	2.74922
13.11	2.77224
13.12	2.7558
13.13	2.74099
13.14	2.7479
13.15	2.75514
13.16	2.76961
13.17	2.76139
13.18	2.7275
13.19	2.74626
13.2	2.7354
13.21	2.74658
13.22	2.75251
13.23	2.7627
13.24	2.73112
13.25	2.76731
13.26	2.72356
13.27	2.73672
13.28	2.7683
13.29	2.77882
13.3	2.73737
13.31	2.74428
13.32	2.74099
13.33	2.72718
13.34	2.71829
13.35	2.74757
13.36	2.7706
13.37	2.75908
13.38	2.75711
13.39	2.76764
13.4	2.79823
13.41	2.74461
13.42	2.70843
13.43	2.71073
13.44	2.74724
13.45	2.75119
13.46	2.75152
13.47	2.75185
13.48	2.80645
13.49	2.76566
13.5	2.76237
13.51	2.77356
13.52	2.76139
13.53	2.71764
13.54	2.75448
13.55	2.76534
13.56	2.74987
13.57	2.73441
13.58	2.75119
13.59	2.76895
13.6	2.77652
13.61	2.73244
13.62	2.71204
13.63	2.75941
13.64	2.7456
13.65	2.77948
13.66	2.78277
13.67	2.78211
13.68	2.76632
13.69	2.75843
13.7	2.75119
13.71	2.75316
13.72	2.74955
13.73	2.75876
13.74	2.78836
13.75	2.75843
