"BIO-KINE ASCII FILE"
"_COMMENT"	"MOS-500 Spectrometer"
"_COMMENT"	"Kinetics measurement"
"_COMMENT"	"Y Unit : Volt,  X Unit : s"
"_COMMENT"	"Excitation wavelength : 380 nm"
"_COMMENT"	"Fentes bandwidth =  1 nm"
"_COMMENT"	"HV= 1000V"
"_COMMENT"	"Timebase  1 =  .01 s   5001 pts"
"_SFM"	"SFM-400 /S  Advanced mode"
"_SFM"	"Ratio : S1: 2.5, S2: 0, S3: 0, S4: 1"
"_SFM"	"Content : S1: , S2: , S3: , S4:"
"_SFM"	"Concentration : S1: , S2: , S3: , S4:"
"_SFM"	"Total volume : 209 µl  Flow : 3.5 mL/s"
"_SFM"	"Acquisition start :  10 ms before stop"
"_SFM"	"cuve=FC-15, s1=10 ml , s2=10 ml , s3=10 ml , s4=1.9 ml"
"_UNITX"	"s"
"_UNITY"	"Volt"
"_DELTAX"	0
"_DATA"
1e-300	2.97587
0.01	2.9206
0.02	2.92981
0.03	3.00778
0.04	3.07949
0.05	3.09166
0.06	3.12291
0.07	3.13048
0.08	3.15252
0.09	3.17489
0.1	3.18114
0.11	3.18377
0.12	3.16831
0.13	3.17752
0.14	3.19693
0.15	3.20351
0.16	3.22028
0.17	3.1943
0.18	3.19726
0.19	3.19002
0.2	3.22259
0.21	3.21535
0.22	3.2114
0.23	3.24134
0.24	3.19792
0.25	3.19594
0.26	3.21634
0.27	3.20548
0.28	3.23377
0.29	3.25318
0.3	3.25351
0.31	3.24002
0.32	3.22851
0.33	3.19594
0.34	3.20943
0.35	3.2012
0.36	3.22982
0.37	3.24331
0.38	3.22324
0.39	3.23936
0.4	3.18739
0.41	3.17522
0.42	3.21831
0.43	3.21338
0.44	3.22456
0.45	3.22489
0.46	3.23147
0.47	3.22226
0.48	3.21634
0.49	3.23805
0.5	3.25779
0.51	3.24101
0.52	3.19857
0.53	3.24167
0.54	3.21568
0.55	3.19956
0.56	3.23246
0.57	3.19989
0.58	3.1887
0.59	3.22719
0.6	3.24825
0.61	3.22522
0.62	3.2443
0.63	3.22752
0.64	3.23147
0.65	3.23015
0.66	3.19824
0.67	3.1716
0.68	3.20153
0.69	3.18574
0.7	3.23542
0.71	3.19101
0.72	3.23344
0.73	3.23377
0.74	3.21765
0.75	3.17686
0.76	3.2591
0.77	3.19561
0.78	3.20022
0.79	3.19923
0.8	3.20713
0.81	3.1887
0.82	3.20482
0.83	3.20713
0.84	3.22456
0.85	3.19101
0.86	3.1966
0.87	3.18541
0.88	3.21798
0.89	3.20943
0.9	3.21239
0.91	3.19166
0.92	3.19495
0.93	3.19199
0.94	3.22851
0.95	3.19364
0.96	3.22226
0.97	3.19101
0.98	3.17818
0.99	3.18739
1	3.21864
1.01	3.19693
1.02	3.19166
1.03	3.22226
1.04	3.1943
1.05	3.19923
1.06	3.18245
1.07	3.19101
1.08	3.19561
1.09	3.20055
1.1	3.19265
1.11	3.1887
1.12	3.17982
1.13	3.20778
1.14	3.1966
1.15	3.19463
1.16	3.13804
1.17	3.16436
1.18	3.21042
1.19	3.18739
1.2	3.16601
1.21	3.15877
1.22	3.20647
1.23	3.20153
1.24	3.18574
1.25	3.21963
1.26	3.19232
1.27	3.16272
1.28	3.18081
1.29	3.19331
1.3	3.21403
1.31	3.1762
1.32	3.17949
1.33	3.17851
1.34	3.16272
1.35	3.15778
1.36	3.18805
1.37	3.21239
1.38	3.17226
1.39	3.17324
1.4	3.20877
1.41	3.19397
1.42	3.17785
1.43	3.20449
1.44	3.2239
1.45	3.21502
1.46	3.17851
1.47	3.18607
1.48	3.19134
1.49	3.18969
1.5	3.18213
1.51	3.21831
1.52	3.17949
1.53	3.17127
1.54	3.17686
1.55	3.16107
1.56	3.17785
1.57	3.16206
1.58	3.1989
1.59	3.16008
1.6	3.1466
1.61	3.18574
1.62	3.19759
1.63	3.15976
1.64	3.14923
1.65	3.14495
1.66	3.19594
1.67	3.16469
1.68	3.15351
1.69	3.15383
1.7	3.20647
1.71	3.17127
1.72	3.16699
1.73	3.14166
1.74	3.14956
1.75	3.19923
1.76	3.18213
1.77	3.15153
1.78	3.17061
1.79	3.15712
1.8	3.18574
1.81	3.19331
1.82	3.15943
1.83	3.19989
1.84	3.17489
1.85	3.18311
1.86	3.18838
1.87	3.13147
1.88	3.13772
1.89	3.15581
1.9	3.14594
1.91	3.17851
1.92	3.16041
1.93	3.17719
1.94	3.15647
1.95	3.11469
1.96	3.17752
1.97	3.18476
1.98	3.16305
1.99	3.16765
2	3.17259
2.01	3.18081
2.02	3.15318
2.03	3.14265
2.04	3.11995
2.05	3.14166
2.06	3.17028
2.07	3.18213
2.08	3.16239
2.09	3.15153
2.1	3.14758
2.11	3.17127
2.12	3.1239
2.13	3.17291
2.14	3.1489
2.15	3.17226
2.16	3.1716
2.17	3.17061
2.18	3.14791
2.19	3.16173
2.2	3.19397
2.21	3.15548
2.22	3.15252
2.23	3.16897
2.24	3.16206
2.25	3.11864
2.26	3.11271
2.27	3.13311
2.28	3.15548
2.29	3.1591
2.3	3.16535
2.31	3.14956
2.32	3.15811
2.33	3.19824
2.34	3.16831
2.35	3.14002
2.36	3.15482
2.37	3.18278
2.38	3.15416
2.39	3.16239
2.4	3.15811
2.41	3.17851
2.42	3.14462
2.43	3.16962
2.44	3.13903
2.45	3.10712
2.46	3.15614
2.47	3.16535
2.48	3.15252
2.49	3.18114
2.5	3.16403
2.51	3.18344
2.52	3.14923
2.53	3.15647
2.54	3.14462
2.55	3.13706
2.56	3.14857
2.57	3.17818
2.58	3.14133
2.59	3.12357
2.6	3.13739
2.61	3.14726
2.62	3.17061
2.63	3.16502
2.64	3.15416
2.65	3.14956
2.66	3.1239
2.67	3.15811
2.68	3.14429
2.69	3.1716
2.7	3.18673
2.71	3.17226
2.72	3.14232
2.73	3.14101
2.74	3.1693
2.75	3.15778
2.76	3.15219
2.77	3.13048
2.78	3.13837
2.79	3.14495
2.8	3.16568
2.81	3.17423
2.82	3.15712
2.83	3.15614
2.84	3.13147
2.85	3.11699
2.86	3.1035
2.87	3.15416
2.88	3.15943
2.89	3.1489
2.9	3.13969
2.91	3.15778
2.92	3.12423
2.93	3.13508
2.94	3.14857
2.95	3.14429
2.96	3.16831
2.97	3.13179
2.98	3.13114
2.99	3.14923
3	3.11831
3.01	3.10712
3.02	3.11831
3.03	3.15449
3.04	3.15055
3.05	3.13936
3.06	3.13903
3.07	3.12291
3.08	3.1114
3.09	3.1137
3.1	3.11173
3.11	3.12554
3.12	3.15745
3.13	3.11502
3.14	3.12456
3.15	3.12193
3.16	3.10416
3.17	3.13607
3.18	3.12258
3.19	3.10679
3.2	3.11864
3.21	3.13081
3.22	3.13114
3.23	3.08344
3.24	3.10975
3.25	3.13673
3.26	3.14462
3.27	3.11831
3.28	3.14002
3.29	3.17357
3.3	3.15877
3.31	3.116
3.32	3.11765
3.33	3.1216
3.34	3.13147
3.35	3.1762
3.36	3.17127
3.37	3.11831
3.38	3.1216
3.39	3.14791
3.4	3.14298
3.41	3.13903
3.42	3.15614
3.43	3.12324
3.44	3.10548
3.45	3.15318
3.46	3.12554
3.47	3.07719
3.48	3.11765
3.49	3.14364
3.5	3.1091
3.51	3.1035
3.52	3.13706
3.53	3.13344
3.54	3.14265
3.55	3.14265
3.56	3.11962
3.57	3.12752
3.58	3.14528
3.59	3.13147
3.6	3.09429
3.61	3.14594
3.62	3.14364
3.63	3.13048
3.64	3.116
3.65	3.09298
3.66	3.14035
3.67	3.1364
3.68	3.11271
3.69	3.09824
3.7	3.13903
3.71	3.11831
3.72	3.09067
3.73	3.11535
3.74	3.14397
3.75	3.1035
3.76	3.08804
3.77	3.10844
3.78	3.10745
3.79	3.14002
3.8	3.1568
3.81	3.09594
3.82	3.10318
3.83	3.14331
3.84	3.13179
3.85	3.14199
3.86	3.12686
3.87	3.11107
3.88	3.12423
3.89	3.14627
3.9	3.11041
3.91	3.11008
3.92	3.09824
3.93	3.13311
3.94	3.13772
3.95	3.14035
3.96	3.12291
3.97	3.10252
3.98	3.11074
3.99	3.10449
4	3.13179
4.01	3.13344
4.02	3.13212
4.03	3.12225
4.04	3.09692
4.05	3.11436
4.06	3.11502
4.07	3.09429
4.08	3.08015
4.09	3.08311
4.1	3.11502
4.11	3.12686
4.12	3.09857
4.13	3.07357
4.14	3.12489
4.15	3.1341
4.16	3.10745
4.17	3.1091
4.18	3.12719
4.19	3.13377
4.2	3.13443
4.21	3.12818
4.22	3.08278
4.23	3.09594
4.24	3.12719
4.25	3.11469
4.26	3.10778
4.27	3.09824
4.28	3.08212
4.29	3.08442
4.3	3.07916
4.31	3.08475
4.32	3.07949
4.33	3.10318
4.34	3.08377
4.35	3.13245
4.36	3.06929
4.37	3.10515
4.38	3.11403
4.39	3.15087
4.4	3.13212
4.41	3.12587
4.42	3.11666
4.43	3.10515
4.44	3.08278
4.45	3.08048
4.46	3.14331
4.47	3.11798
4.48	3.08113
4.49	3.10318
4.5	3.14495
4.51	3.11535
4.52	3.09396
4.53	3.11436
4.54	3.0989
4.55	3.09364
4.56	3.0966
4.57	3.10679
4.58	3.11864
4.59	3.14397
4.6	3.11699
4.61	3.13344
4.62	3.10614
4.63	3.07785
4.64	3.08245
4.65	3.09561
4.66	3.09331
4.67	3.06633
4.68	3.08475
4.69	3.11765
4.7	3.11699
4.71	3.10614
4.72	3.09462
4.73	3.10318
4.74	3.12225
4.75	3.11271
4.76	3.09429
4.77	3.08245
4.78	3.11995
4.79	3.09758
4.8	3.07456
4.81	3.0989
4.82	3.0864
4.83	3.09002
4.84	3.11008
4.85	3.12653
4.86	3.10252
4.87	3.10054
4.88	3.10449
4.89	3.07521
4.9	3.08804
4.91	3.08936
4.92	3.11995
4.93	3.0966
4.94	3.12061
4.95	3.10646
4.96	3.09725
4.97	3.1137
4.98	3.11239
4.99	3.08541
5	3.1262
5.01	3.10712
5.02	3.0785
5.03	3.07357
5.04	3.11337
5.05	3.11666
5.06	3.10285
5.07	3.10844
5.08	3.04824
5.09	3.06337
5.1	3.0989
5.11	3.10285
5.12	3.11732
5.13	3.10416
5.14	3.08804
5.15	3.11041
5.16	3.13015
5.17	3.08541
5.18	3.06798
5.19	3.09528
5.2	3.12719
5.21	3.08804
5.22	3.08442
5.23	3.05646
5.24	3.11568
5.25	3.09331
5.26	3.12193
5.27	3.07258
5.28	3.08048
5.29	3.08804
5.3	3.09166
5.31	3.07094
5.32	3.09166
5.33	3.08969
5.34	3.05186
5.35	3.07521
5.36	3.10877
5.37	3.08048
5.38	3.07916
5.39	3.08179
5.4	3.06831
5.41	3.08212
5.42	3.10548
5.43	3.10153
5.44	3.0716
5.45	3.09528
5.46	3.07094
5.47	3.0785
5.48	3.05778
5.49	3.04133
5.5	3.06436
5.51	3.06896
5.52	3.09166
5.53	3.066
5.54	3.09364
5.55	3.07357
5.56	3.06896
5.57	3.0387
5.58	3.07686
5.59	3.10614
5.6	3.08212
5.61	3.0614
5.62	3.07653
5.63	3.08574
5.64	3.05416
5.65	3.06271
5.66	3.06995
5.67	3.08541
5.68	3.07719
5.69	3.06008
5.7	3.07324
5.71	3.08146
5.72	3.07752
5.73	3.09627
5.74	3.06765
5.75	3.05021
5.76	3.06666
5.77	3.07554
5.78	3.08015
5.79	3.06074
5.8	3.05646
5.81	3.08081
5.82	3.05054
5.83	3.05054
5.84	3.03804
5.85	3.06173
5.86	3.066
5.87	3.04857
5.88	3.07324
5.89	3.08574
5.9	3.07554
5.91	3.06995
5.92	3.06798
5.93	3.07357
5.94	3.07916
5.95	3.0614
5.96	3.02455
5.97	3.03673
5.98	3.0535
5.99	3.10054
6	3.09462
6.01	3.08508
6.02	3.06304
6.03	3.07982
6.04	3.0887
6.05	3.09331
6.06	3.10219
6.07	3.05482
6.08	3.07456
6.09	3.07357
6.1	3.03903
6.11	3.06962
6.12	3.05679
6.13	3.0285
6.14	3.04002
6.15	3.05087
6.16	3.07982
6.17	3.10285
6.18	3.04265
6.19	3.04495
6.2	3.05449
6.21	3.08936
6.22	3.05844
6.23	3.08673
6.24	3.0739
6.25	3.09067
6.26	3.06896
6.27	3.0716
6.28	3.06041
6.29	3.04923
6.3	3.06962
6.31	3.07686
6.32	3.06337
6.33	3.04692
6.34	3.06107
6.35	3.06699
6.36	3.10548
6.37	3.06008
6.38	3.05087
6.39	3.05548
6.4	3.05054
6.41	3.05219
6.42	3.05054
6.43	3.0614
6.44	3.06567
6.45	3.04265
6.46	3.08739
6.47	3.06929
6.48	3.05613
6.49	3.04495
6.5	3.02949
6.51	3.07423
6.52	3.06534
6.53	3.08442
6.54	3.09758
6.55	3.04002
6.56	3.04002
6.57	3.07291
6.58	3.08607
6.59	3.0762
6.6	3.08212
6.61	3.04857
6.62	3.05284
6.63	3.10021
6.64	3.06995
6.65	3.04462
6.66	3.05778
6.67	3.04462
6.68	3.0614
6.69	3.04955
6.7	3.04298
6.71	3.04002
6.72	3.066
6.73	3.04561
6.74	3.06436
6.75	3.03015
6.76	3.05482
6.77	3.05745
6.78	3.08541
6.79	3.07423
6.8	3.04988
6.81	3.05284
6.82	3.05581
6.83	3.07554
6.84	3.05745
6.85	3.06469
6.86	3.05219
6.87	3.04002
6.88	3.0637
6.89	3.03771
6.9	3.03015
6.91	3.02982
6.92	3.0285
6.93	3.041
6.94	3.05219
6.95	3.0535
6.96	3.05909
6.97	3.06633
6.98	3.06831
6.99	3.06173
7	3.03903
7.01	3.05482
7.02	3.04396
7.03	3.03903
7.04	3.04857
7.05	3.06403
7.06	3.04594
7.07	3.07916
7.08	3.07094
7.09	3.05515
7.1	3.07061
7.11	3.04791
7.12	3.01765
7.13	3.02455
7.14	3.05449
7.15	3.0512
7.16	3.04758
7.17	3.02126
7.18	3.04133
7.19	3.04232
7.2	3.06469
7.21	3.03607
7.22	3.01699
7.23	3.04824
7.24	3.08344
7.25	3.06074
7.26	3.01666
7.27	3.03607
7.28	3.05252
7.29	3.07094
7.3	3.05482
7.31	3.05712
7.32	3.02159
7.33	3.04561
7.34	3.06863
7.35	3.05186
7.36	3.07752
7.37	3.04528
7.38	3.06403
7.39	3.0364
7.4	3.03311
7.41	3.03738
7.42	3.05712
7.43	3.03771
7.44	3.06436
7.45	3.04199
7.46	3.03344
7.47	3.07127
7.48	3.05581
7.49	3.06436
7.5	3.02883
7.51	3.03048
7.52	3.04429
7.53	3.02817
7.54	3.02324
7.55	3.03607
7.56	3.03936
7.57	3.05054
7.58	3.03936
7.59	3.05317
7.6	3.04923
7.61	3.03048
7.62	3.04923
7.63	3.05581
7.64	3.05712
7.65	3.03969
7.66	3.04067
7.67	3.02554
7.68	3.0183
7.69	3.02357
7.7	3.03409
7.71	3.06765
7.72	3.02455
7.73	3.01403
7.74	3.0285
7.75	3.03837
7.76	3.04002
7.77	3.05021
7.78	3.04199
7.79	3.06403
7.8	3.0387
7.81	3.02686
7.82	3.04594
7.83	3.05219
7.84	3.03376
7.85	3.04988
7.86	3.05087
7.87	3.05087
7.88	3.06469
7.89	3.05449
7.9	3.0614
7.91	3.01765
7.92	3.03771
7.93	3.00909
7.94	3.04824
7.95	3.03771
7.96	3.04627
7.97	3.03015
7.98	3.03607
7.99	3.03936
8	3.06041
8.01	3.0512
8.02	3.0535
8.03	3.01995
8.04	3.02225
8.05	3.0614
8.06	3.08804
8.07	3.03311
8.08	3.03936
8.09	3.05087
8.1	3.04659
8.11	3.016
8.12	3.04758
8.13	3.05219
8.14	3.02291
8.15	3.01469
8.16	3.01929
8.17	3.0535
8.18	3.0387
8.19	3.0512
8.2	3.066
8.21	3.06403
8.22	3.01567
8.23	3.00383
8.24	3.01699
8.25	3.06699
8.26	3.06041
8.27	3.07488
8.28	3.06271
8.29	3.04265
8.3	3.04462
8.31	3.0262
8.32	3.03607
8.33	3.0433
8.34	3.03738
8.35	3.03607
8.36	3.0239
8.37	3.03607
8.38	3.04462
8.39	3.04627
8.4	3.02061
8.41	2.99528
8.42	3.02982
8.43	2.99857
8.44	3.02291
8.45	3.0364
8.46	3.02719
8.47	3.02949
8.48	3.01567
8.49	3.04199
8.5	3.03179
8.51	3.01863
8.52	3.02653
8.53	3.02916
8.54	3.05646
8.55	3.0433
8.56	2.99363
8.57	3.00679
8.58	3.04396
8.59	3.01008
8.6	2.98541
8.61	2.99034
8.62	3.02159
8.63	2.9989
8.64	3.01765
8.65	3.04692
8.66	3.01699
8.67	3.02784
8.68	2.99396
8.69	3.01863
8.7	3.02554
8.71	3.03146
8.72	3.04002
8.73	3.02357
8.74	2.99528
8.75	2.98014
8.76	2.99429
8.77	3.00942
8.78	3.01172
8.79	3.01699
8.8	3.01633
8.81	3.01699
8.82	2.99495
8.83	3.016
8.84	3.06238
8.85	3.03245
8.86	3.03738
8.87	3.05581
8.88	3.02686
8.89	3.04857
8.9	3.03771
8.91	3.0489
8.92	3.02587
8.93	3.05317
8.94	3.04265
8.95	3.00613
8.96	3.03212
8.97	3.03936
8.98	3.00186
8.99	3.04429
9	3.01501
9.01	3.01304
9.02	3.01436
9.03	3.01403
9.04	3.03344
9.05	3.03344
9.06	3.02949
9.07	3.02028
9.08	2.97817
9.09	2.99922
9.1	3.00942
9.11	3.0183
9.12	3.02225
9.13	2.99232
9.14	3.00449
9.15	3.03146
9.16	3.02784
9.17	3.04133
9.18	3.03278
9.19	3.03903
9.2	3.01205
9.21	3.01304
9.22	3.02324
9.23	3.03015
9.24	3.07258
9.25	3.04692
9.26	3.01666
9.27	3.03409
9.28	3.01666
9.29	3.05712
9.3	3.0308
9.31	3.00482
9.32	3.02521
9.33	3.00646
9.34	3.03179
9.35	3.01172
9.36	3.03344
9.37	3.01699
9.38	2.99988
9.39	2.99265
9.4	3.01699
9.41	3.01732
9.42	3.016
9.43	3.02028
9.44	3.01074
9.45	3.01501
9.46	3.01962
9.47	3.04396
9.48	3.00876
9.49	2.99396
9.5	2.99988
9.51	3.0433
9.52	3.05909
9.53	3.02554
9.54	3.00811
9.55	3.02357
9.56	3.02061
9.57	3.02159
9.58	3.00021
9.59	2.98278
9.6	3.01271
9.61	3.01436
9.62	3.01633
9.63	2.99791
9.64	3.00087
9.65	2.97225
9.66	2.9864
9.67	3.01271
9.68	3.01863
9.69	3.04396
9.7	3.02653
9.71	3.00547
9.72	3.00942
9.73	3.02028
9.74	3.03508
9.75	3.03442
9.76	3.03278
9.77	3.02686
9.78	2.9989
9.79	3.01436
9.8	3.03837
9.81	3.03409
9.82	2.9989
9.83	3.00087
9.84	3.00021
9.85	2.99265
9.86	3.0262
9.87	3.02949
9.88	3.02225
9.89	3.03607
9.9	3.01732
9.91	3.01238
9.92	3.02817
9.93	3.00449
9.94	2.99265
9.95	2.97159
9.96	2.99824
9.97	3.00975
9.98	3.0058
9.99	3.01501
10	3.03837
10.01	2.99626
10.02	3.01008
10.03	3.00778
10.04	2.99265
10.05	2.98771
10.06	2.97028
10.07	3.02291
10.08	2.98804
10.09	2.98936
10.1	2.99857
10.11	2.99199
10.12	3.01896
10.13	2.99824
10.14	3.01172
10.15	3.01107
10.16	3.03804
10.17	3.00219
10.18	2.99462
10.19	2.97718
10.2	2.98245
10.21	3.02455
10.22	2.9933
10.23	2.99232
10.24	3.00383
10.25	3.02423
10.26	2.98771
10.27	3.01567
10.28	2.97028
10.29	3.00646
10.3	3.02751
10.31	3.01501
10.32	3.04265
10.33	3.02028
10.34	2.99824
10.35	3.02192
10.36	3.01403
10.37	3.02225
10.38	3.00778
10.39	2.9864
10.4	3.01567
10.41	2.99824
10.42	3.01798
10.43	3.00087
10.44	3.00186
10.45	3.02817
10.46	3.0285
10.47	3.01962
10.48	3.00087
10.49	3.01107
10.5	3.00515
10.51	3.02719
10.52	2.97751
10.53	2.97455
10.54	3.02159
10.55	3.00778
10.56	2.98376
10.57	3.00679
10.58	3.02028
10.59	3.02587
10.6	3.0183
10.61	3.01271
10.62	2.97389
10.63	2.99561
10.64	2.99133
10.65	3.00547
10.66	2.99659
10.67	3.04265
10.68	3.00317
10.69	3.00547
10.7	3.02357
10.71	2.99297
10.72	2.99297
10.73	3.00383
10.74	3.01501
10.75	3.01567
10.76	3.00679
10.77	3.00219
10.78	3.00942
10.79	2.97751
10.8	2.96337
10.81	2.99265
10.82	2.9887
10.83	2.98442
10.84	2.97061
10.85	3.00383
10.86	3.00745
10.87	2.97949
10.88	2.97883
10.89	2.99462
10.9	2.98376
10.91	3.00219
10.92	2.99857
10.93	3.00876
10.94	2.97916
10.95	2.99363
10.96	2.98409
10.97	3.01666
10.98	3.01732
10.99	2.99922
11	2.99626
11.01	3.01633
11.02	2.99955
11.03	3.00712
11.04	2.98047
11.05	2.98212
11.06	2.99922
11.07	3.00515
11.08	3.02094
11.09	3.00251
11.1	3.03179
11.11	2.98936
11.12	3.00219
11.13	2.98146
11.14	2.97916
11.15	2.99265
11.16	2.96567
11.17	2.99528
11.18	3.02916
11.19	2.98968
11.2	2.97653
11.21	2.9864
11.22	3.00613
11.23	2.95975
11.24	2.99626
11.25	3.0114
11.26	2.96896
11.27	2.98278
11.28	3.0137
11.29	3.01666
11.3	2.98113
11.31	2.96896
11.32	2.98574
11.33	3.00778
11.34	2.98508
11.35	2.99363
11.36	3.01534
11.37	3.03311
11.38	2.99561
11.39	3.00909
11.4	2.97521
11.41	2.96929
11.42	3.00186
11.43	2.98179
11.44	2.96962
11.45	2.96501
11.46	2.98278
11.47	2.99824
11.48	3.0239
11.49	3.02455
11.5	3.00087
11.51	2.97587
11.52	2.97258
11.53	2.99034
11.54	2.97554
11.55	3.03607
11.56	3.01567
11.57	3.01962
11.58	2.96633
11.59	2.94922
11.6	2.99725
11.61	2.96139
11.62	2.95416
11.63	2.99824
11.64	3.0262
11.65	3.00778
11.66	3.02554
11.67	3.02357
11.68	2.99791
11.69	2.96797
11.7	2.96666
11.71	3.00745
11.72	2.99824
11.73	2.98936
11.74	2.98541
11.75	2.97982
11.76	3.0035
11.77	3.01337
11.78	2.99988
11.79	2.97587
11.8	2.98376
11.81	3.00909
11.82	2.991
11.83	2.97883
11.84	3.00021
11.85	2.99725
11.86	2.99758
11.87	2.97093
11.88	2.95514
11.89	2.97422
11.9	2.98508
11.91	3.01041
11.92	3.0012
11.93	2.98343
11.94	2.99824
11.95	2.99593
11.96	3.016
11.97	3.00547
11.98	3.01469
11.99	3.00153
12	2.99363
12.01	3.00679
12.02	3.00646
12.03	2.99659
12.04	2.96271
12.05	2.97817
12.06	3.00449
12.07	3.00449
12.08	3.00712
12.09	2.98278
12.1	2.99692
12.11	3.01304
12.12	2.98014
12.13	2.99955
12.14	2.99396
12.15	2.99462
12.16	2.99758
12.17	3.00284
12.18	2.9762
12.19	2.99955
12.2	3.00021
12.21	3.02817
12.22	2.98508
12.23	2.98771
12.24	2.9808
12.25	2.95547
12.26	2.99758
12.27	3.01469
12.28	2.97949
12.29	3.02653
12.3	3.01699
12.31	2.98409
12.32	2.9683
12.33	2.98442
12.34	2.98804
12.35	3.00613
12.36	2.97291
12.37	2.97949
12.38	2.99528
12.39	2.98508
12.4	2.98014
12.41	2.98245
12.42	2.95185
12.43	2.95383
12.44	2.99067
12.45	2.96764
12.46	2.95942
12.47	2.96863
12.48	2.98936
12.49	2.98146
12.5	2.99199
12.51	3.00547
12.52	2.99363
12.53	2.98508
12.54	3.01896
12.55	2.98442
12.56	2.99429
12.57	2.95975
12.58	2.97389
12.59	2.99791
12.6	3.02291
12.61	3.00219
12.62	2.99561
12.63	3.01271
12.64	3.01995
12.65	3.02159
12.66	2.99791
12.67	3.00844
12.68	3.00251
12.69	2.99593
12.7	2.96732
12.71	2.99462
12.72	2.96962
12.73	2.99067
12.74	2.99462
12.75	3.00679
12.76	2.99659
12.77	2.97258
12.78	2.97686
12.79	2.99824
12.8	2.98146
12.81	3.00844
12.82	3.01436
12.83	2.99462
12.84	2.95482
12.85	2.96633
12.86	2.98705
12.87	2.98311
12.88	2.97653
12.89	2.96074
12.9	3.00712
12.91	2.98113
12.92	2.97389
12.93	2.96896
12.94	3.00515
12.95	2.99265
12.96	2.97751
12.97	3.0035
12.98	3.00317
12.99	2.96567
13	2.99692
13.01	2.95514
13.02	2.96403
13.03	2.94955
13.04	2.96501
13.05	3.02916
13.06	2.98607
13.07	2.99988
13.08	2.97521
13.09	2.95185
13.1	2.97357
13.11	2.95449
13.12	2.98212
13.13	2.93903
13.14	2.98113
13.15	2.99692
13.16	2.96863
13.17	2.99824
13.18	2.98936
13.19	2.96403
13.2	2.96534
13.21	2.98047
13.22	2.95942
13.23	2.97982
13.24	3.01666
13.25	2.96172
13.26	2.95778
13.27	2.99561
13.28	2.98146
13.29	2.97521
13.3	2.99659
13.31	2.98771
13.32	2.96468
13.33	2.98738
13.34	2.99034
13.35	3.00811
13.36	3.00284
13.37	2.99166
13.38	2.99462
13.39	2.9864
13.4	2.97784
13.41	2.98508
13.42	2.95975
13.43	2.96896
13.44	2.96403
13.45	2.96403
13.46	2.98179
13.47	2.96501
13.48	2.99462
13.49	2.98376
13.5	2.94297
13.51	2.95153
13.52	2.9535
13.53	2.97751
13.54	2.98475
13.55	2.98672
13.56	2.94856
13.57	2.96271
13.58	2.98837
13.59	2.98771
13.6	2.97653
13.61	2.98574
13.62	2.98212
13.63	2.97982
13.64	2.98705
13.65	3.00811
13.66	2.96896
13.67	3.01995
13.68	2.98047
13.69	2.95745
13.7	2.96896
13.71	2.99659
13.72	2.96732
13.73	3.00844
