"BIO-KINE ASCII FILE"
"_COMMENT"	"MOS-500 Spectrometer"
"_COMMENT"	"Kinetics measurement"
"_COMMENT"	"Y Unit : Volt,  X Unit : s"
"_COMMENT"	"Excitation wavelength : 380 nm"
"_COMMENT"	"Fentes bandwidth =  1 nm"
"_COMMENT"	"HV= 1000V"
"_COMMENT"	"Timebase  1 =  .01 s   3001 pts"
"_SFM"	"SFM-400 /S  Advanced mode"
"_SFM"	"Ratio : S1: 2.5, S2: 0, S3: 0, S4: 1"
"_SFM"	"Content : S1: , S2: , S3: , S4:"
"_SFM"	"Concentration : S1: , S2: , S3: , S4:"
"_SFM"	"Total volume : 209 µl  Flow : 3.5 mL/s"
"_SFM"	"Acquisition start :  10 ms before stop"
"_SFM"	"cuve=FC-15, s1=10 ml , s2=10 ml , s3=10 ml , s4=1.9 ml"
"_UNITX"	"s"
"_UNITY"	"Volt"
"_DELTAX"	0
"_DATA"
1e-300	2.60316
0.01	2.53408
0.02	2.5502
0.03	2.57388
0.04	2.59888
0.05	2.64461
0.06	2.64954
0.07	2.66698
0.08	2.71698
0.09	2.69592
0.1	2.68342
0.11	2.70744
0.12	2.7331
0.13	2.74724
0.14	2.75547
0.15	2.73244
0.16	2.715
0.17	2.74165
0.18	2.71402
0.19	2.7275
0.2	2.73211
0.21	2.75843
0.22	2.76369
0.23	2.73244
0.24	2.74823
0.25	2.74593
0.26	2.74889
0.27	2.7683
0.28	2.74724
0.29	2.74691
0.3	2.76139
0.31	2.77159
0.32	2.77882
0.33	2.76665
0.34	2.75283
0.35	2.73836
0.36	2.72257
0.37	2.74001
0.38	2.76435
0.39	2.74527
0.4	2.75283
0.41	2.75678
0.42	2.74231
0.43	2.77126
0.44	2.76402
0.45	2.77586
0.46	2.7808
0.47	2.7683
0.48	2.78047
0.49	2.75744
0.5	2.77685
0.51	2.75612
0.52	2.74757
0.53	2.77751
0.54	2.75218
0.55	2.74922
0.56	2.74033
0.57	2.73474
0.58	2.73474
0.59	2.76862
0.6	2.74099
0.61	2.75777
0.62	2.73573
0.63	2.76172
0.64	2.78211
0.65	2.75678
0.66	2.7831
0.67	2.76205
0.68	2.73704
0.69	2.77816
0.7	2.75316
0.71	2.73441
0.72	2.75316
0.73	2.74593
0.74	2.76172
0.75	2.7956
0.76	2.75152
0.77	2.77422
0.78	2.78441
0.79	2.74658
0.8	2.76468
0.81	2.74823
0.82	2.76172
0.83	2.75974
0.84	2.74724
0.85	2.73639
0.86	2.76928
0.87	2.73277
0.88	2.74329
0.89	2.76468
0.9	2.76928
0.91	2.76534
0.92	2.7558
0.93	2.73441
0.94	2.74461
0.95	2.74593
0.96	2.76501
0.97	2.74198
0.98	2.75283
0.99	2.74066
1	2.73507
1.01	2.75974
1.02	2.74066
1.03	2.76501
1.04	2.73376
1.05	2.73441
1.06	2.74329
1.07	2.73014
1.08	2.73441
1.09	2.7627
1.1	2.79297
1.11	2.79856
1.12	2.75481
1.13	2.75645
1.14	2.75876
1.15	2.76073
1.16	2.78145
1.17	2.72553
1.18	2.74494
1.19	2.75876
1.2	2.76895
1.21	2.75316
1.22	2.72553
1.23	2.72718
1.24	2.73376
1.25	2.75908
1.26	2.74987
1.27	2.72915
1.28	2.73244
1.29	2.76961
1.3	2.7558
1.31	2.73704
1.32	2.73376
1.33	2.7252
1.34	2.72356
1.35	2.74033
1.36	2.7252
1.37	2.71632
1.38	2.74329
1.39	2.73836
1.4	2.75876
1.41	2.73573
1.42	2.74724
1.43	2.72783
1.44	2.71369
1.45	2.72356
1.46	2.75086
1.47	2.73935
1.48	2.71369
1.49	2.7252
1.5	2.7104
1.51	2.72915
1.52	2.74132
1.53	2.7377
1.54	2.74593
1.55	2.75283
1.56	2.70908
1.57	2.71599
1.58	2.73935
1.59	2.75152
1.6	2.72981
1.61	2.74165
1.62	2.76632
1.63	2.75349
1.64	2.74527
1.65	2.71632
1.66	2.73079
1.67	2.73606
1.68	2.72882
1.69	2.73408
1.7	2.74889
1.71	2.76501
1.72	2.76599
1.73	2.75876
1.74	2.76895
1.75	2.74329
1.76	2.74461
1.77	2.72487
1.78	2.74922
1.79	2.76303
1.8	2.75612
1.81	2.76764
1.82	2.76205
1.83	2.75645
1.84	2.7229
1.85	2.73145
1.86	2.74033
1.87	2.72454
1.88	2.76172
1.89	2.72487
1.9	2.72981
1.91	2.71895
1.92	2.73145
1.93	2.73376
1.94	2.72652
1.95	2.72323
1.96	2.75481
1.97	2.73441
1.98	2.75481
1.99	2.72586
2	2.72158
2.01	2.72158
2.02	2.75086
2.03	2.75185
2.04	2.74527
2.05	2.73573
2.06	2.71435
2.07	2.76106
2.08	2.76172
2.09	2.76205
2.1	2.73343
2.11	2.71862
2.12	2.68902
2.13	2.73968
2.14	2.74527
2.15	2.73869
2.16	2.74955
2.17	2.75316
2.18	2.72783
2.19	2.75152
2.2	2.75744
2.21	2.71895
2.22	2.73737
2.23	2.7377
2.24	2.70218
2.25	2.7354
2.26	2.74691
2.27	2.73737
2.28	2.75185
2.29	2.72816
2.3	2.71895
2.31	2.74823
2.32	2.74889
2.33	2.7081
2.34	2.74001
2.35	2.7479
2.36	2.71073
2.37	2.71829
2.38	2.73836
2.39	2.72027
2.4	2.72619
2.41	2.69823
2.42	2.70185
2.43	2.71237
2.44	2.69658
2.45	2.71303
2.46	2.73343
2.47	2.71533
2.48	2.74527
2.49	2.73014
2.5	2.70777
2.51	2.72981
2.52	2.75218
2.53	2.74099
2.54	2.76205
2.55	2.73704
2.56	2.74066
2.57	2.76237
2.58	2.75547
2.59	2.70481
2.6	2.73211
2.61	2.75678
2.62	2.73639
2.63	2.7502
2.64	2.7206
2.65	2.72685
2.66	2.72093
2.67	2.77257
2.68	2.75316
2.69	2.72849
2.7	2.74593
2.71	2.7025
2.72	2.70119
2.73	2.73343
2.74	2.71336
2.75	2.7025
2.76	2.72027
2.77	2.70678
2.78	2.72652
2.79	2.75711
2.8	2.7252
2.81	2.69
2.82	2.73014
2.83	2.74889
2.84	2.7206
2.85	2.72882
2.86	2.72487
2.87	2.70119
2.88	2.72027
2.89	2.70777
2.9	2.73639
2.91	2.7331
2.92	2.70514
2.93	2.71862
2.94	2.71632
2.95	2.69494
2.96	2.68803
2.97	2.74329
2.98	2.71435
2.99	2.72389
3	2.72323
3.01	2.7331
3.02	2.70119
3.03	2.72882
3.04	2.73704
3.05	2.72652
3.06	2.70777
3.07	2.71468
3.08	2.71599
3.09	2.75514
3.1	2.75316
3.11	2.7331
3.12	2.75119
3.13	2.72882
3.14	2.69231
3.15	2.72816
3.16	2.70678
3.17	2.71468
3.18	2.72027
3.19	2.73639
3.2	2.71171
3.21	2.71303
3.22	2.72257
3.23	2.72981
3.24	2.72586
3.25	2.7331
3.26	2.70908
3.27	2.72652
3.28	2.70546
3.29	2.71895
3.3	2.73343
3.31	2.72718
3.32	2.72257
3.33	2.67948
3.34	2.71961
3.35	2.72849
3.36	2.74626
3.37	2.71928
3.38	2.71895
3.39	2.72553
3.4	2.70711
3.41	2.72158
3.42	2.74428
3.43	2.72619
3.44	2.71698
3.45	2.72981
3.46	2.74461
3.47	2.70448
3.48	2.70645
3.49	2.70974
3.5	2.71862
3.51	2.7331
3.52	2.68869
3.53	2.715
3.54	2.69921
3.55	2.74527
3.56	2.72323
3.57	2.70086
3.58	2.68573
3.59	2.69329
3.6	2.69296
3.61	2.70843
3.62	2.72553
3.63	2.70053
3.64	2.65612
3.65	2.72422
3.66	2.70316
3.67	2.68013
3.68	2.70875
3.69	2.69362
3.7	2.71928
3.71	2.70777
3.72	2.70415
3.73	2.71171
3.74	2.70579
3.75	2.70678
3.76	2.72323
3.77	2.71336
3.78	2.69231
3.79	2.71237
3.8	2.72619
3.81	2.7025
3.82	2.71106
3.83	2.73935
3.84	2.69823
3.85	2.71139
3.86	2.71369
3.87	2.71402
3.88	2.72027
3.89	2.69231
3.9	2.72619
3.91	2.70711
3.92	2.68639
3.93	2.68408
3.94	2.7081
3.95	2.69592
3.96	2.70711
3.97	2.72652
3.98	2.72619
3.99	2.71994
4	2.71204
4.01	2.70908
4.02	2.69428
4.03	2.70283
4.04	2.70218
4.05	2.69724
4.06	2.68408
4.07	2.70316
4.08	2.74066
4.09	2.69198
4.1	2.70612
4.11	2.70152
4.12	2.70908
4.13	2.71435
4.14	2.73112
4.15	2.7127
4.16	2.7104
4.17	2.7229
4.18	2.72027
4.19	2.71764
4.2	2.72619
4.21	2.71435
4.22	2.7104
4.23	2.73672
4.24	2.72685
4.25	2.70908
4.26	2.6854
4.27	2.69165
4.28	2.70711
4.29	2.70086
4.3	2.69296
4.31	2.70777
4.32	2.66073
4.33	2.70612
4.34	2.72487
4.35	2.73047
4.36	2.72257
4.37	2.70678
4.38	2.71895
4.39	2.70218
4.4	2.67619
4.41	2.70448
4.42	2.70678
4.43	2.68902
4.44	2.67652
4.45	2.71336
4.46	2.69856
4.47	2.68737
4.48	2.71139
4.49	2.69329
4.5	2.6956
4.51	2.68902
4.52	2.71007
4.53	2.7229
4.54	2.69395
4.55	2.71829
4.56	2.71961
4.57	2.73803
4.58	2.70448
4.59	2.72718
4.6	2.69724
4.61	2.70053
4.62	2.67816
4.63	2.69527
4.64	2.68967
4.65	2.73474
4.66	2.72487
4.67	2.69165
4.68	2.70612
4.69	2.71204
4.7	2.67948
4.71	2.70974
4.72	2.7275
4.73	2.70481
4.74	2.70645
4.75	2.69165
4.76	2.70579
4.77	2.70777
4.78	2.73014
4.79	2.69592
4.8	2.68836
4.81	2.70448
4.82	2.71961
4.83	2.66533
4.84	2.6979
4.85	2.70678
4.86	2.7002
4.87	2.74626
4.88	2.7127
4.89	2.67619
4.9	2.66994
4.91	2.69329
4.92	2.70546
4.93	2.74395
4.94	2.70579
4.95	2.66961
4.96	2.71303
4.97	2.75645
4.98	2.71204
4.99	2.69889
5	2.70283
5.01	2.67388
5.02	2.67816
5.03	2.72652
5.04	2.70612
5.05	2.68474
5.06	2.66599
5.07	2.67849
5.08	2.69264
5.09	2.70382
5.1	2.7002
5.11	2.70283
5.12	2.71336
5.13	2.70974
5.14	2.69823
5.15	2.71665
5.16	2.70843
5.17	2.69165
5.18	2.67356
5.19	2.69823
5.2	2.67915
5.21	2.70777
5.22	2.70283
5.23	2.69296
5.24	2.69658
5.25	2.68375
5.26	2.7127
5.27	2.72389
5.28	2.68967
5.29	2.6775
5.3	2.6854
5.31	2.7331
5.32	2.67849
5.33	2.68704
5.34	2.70579
5.35	2.72783
5.36	2.69954
5.37	2.72027
5.38	2.72849
5.39	2.69
5.4	2.68737
5.41	2.70086
5.42	2.70185
5.43	2.69724
5.44	2.69889
5.45	2.68967
5.46	2.70185
5.47	2.6956
5.48	2.68013
5.49	2.69264
5.5	2.69395
5.51	2.69329
5.52	2.71533
5.53	2.70777
5.54	2.70316
5.55	2.69099
5.56	2.67586
5.57	2.70152
5.58	2.69823
5.59	2.69231
5.6	2.68639
5.61	2.71073
5.62	2.68046
5.63	2.69198
5.64	2.72356
5.65	2.68902
5.66	2.69
5.67	2.66566
5.68	2.69362
5.69	2.67487
5.7	2.66204
5.71	2.70218
5.72	2.67685
5.73	2.67454
5.74	2.69066
5.75	2.68145
5.76	2.71632
5.77	2.6831
5.78	2.69494
5.79	2.70349
5.8	2.71928
5.81	2.71171
5.82	2.70349
5.83	2.7081
5.84	2.68836
5.85	2.7002
5.86	2.68836
5.87	2.67257
5.88	2.65809
5.89	2.69691
5.9	2.66402
5.91	2.69132
5.92	2.7025
5.93	2.68803
5.94	2.64461
5.95	2.70579
5.96	2.70185
5.97	2.70645
5.98	2.66533
5.99	2.69658
6	2.7127
6.01	2.69592
6.02	2.66698
6.03	2.68803
6.04	2.69691
6.05	2.69099
6.06	2.67652
6.07	2.67652
6.08	2.67685
6.09	2.69954
6.1	2.68474
6.11	2.68671
6.12	2.69889
6.13	2.68013
6.14	2.6752
6.15	2.68079
6.16	2.68803
6.17	2.66698
6.18	2.68967
6.19	2.64362
6.2	2.68013
6.21	2.67816
6.22	2.66106
6.23	2.69132
6.24	2.64757
6.25	2.66566
6.26	2.67092
6.27	2.69296
6.28	2.7025
6.29	2.70283
6.3	2.71533
6.31	2.67981
6.32	2.67717
6.33	2.65777
6.34	2.6775
6.35	2.6775
6.36	2.69198
6.37	2.68573
6.38	2.65711
6.39	2.65645
6.4	2.66829
6.41	2.70382
6.42	2.72389
6.43	2.70448
6.44	2.68046
6.45	2.68836
6.46	2.65382
6.47	2.66961
6.48	2.6706
6.49	2.68277
6.5	2.68967
6.51	2.69231
6.52	2.6831
6.53	2.6956
6.54	2.67915
6.55	2.6854
6.56	2.69066
6.57	2.70777
6.58	2.67816
6.59	2.6479
6.6	2.67224
6.61	2.67421
6.62	2.65546
6.63	2.69296
6.64	2.69494
6.65	2.66138
6.66	2.6627
6.67	2.6752
6.68	2.71698
6.69	2.69
6.7	2.6877
6.71	2.68408
6.72	2.67454
6.73	2.70415
6.74	2.69428
6.75	2.72224
6.76	2.68145
6.77	2.69428
6.78	2.70415
6.79	2.72816
6.8	2.72586
6.81	2.68606
6.82	2.67652
6.83	2.70152
6.84	2.7104
6.85	2.70316
6.86	2.67421
6.87	2.67783
6.88	2.68573
6.89	2.69461
6.9	2.71237
6.91	2.64954
6.92	2.68211
6.93	2.70711
6.94	2.69987
6.95	2.7025
6.96	2.70546
6.97	2.66303
6.98	2.69066
6.99	2.71731
7	2.72882
7.01	2.68112
7.02	2.67092
7.03	2.66665
7.04	2.68408
7.05	2.65974
7.06	2.68573
7.07	2.67388
7.08	2.6775
7.09	2.66402
7.1	2.68869
7.11	2.67783
7.12	2.64527
7.13	2.66862
7.14	2.64559
7.15	2.70283
7.16	2.69132
7.17	2.64625
7.18	2.64888
7.19	2.66204
7.2	2.68507
7.21	2.67224
7.22	2.70316
7.23	2.70185
7.24	2.68573
7.25	2.67027
7.26	2.65941
7.27	2.64987
7.28	2.6627
7.29	2.67816
7.3	2.68967
7.31	2.67981
7.32	2.6979
7.33	2.7127
7.34	2.69592
7.35	2.69099
7.36	2.70218
7.37	2.68902
7.38	2.67685
7.39	2.68013
7.4	2.72553
7.41	2.68178
7.42	2.69658
7.43	2.67948
7.44	2.67948
7.45	2.69921
7.46	2.65448
7.47	2.6775
7.48	2.68803
7.49	2.70612
7.5	2.69691
7.51	2.69724
7.52	2.72125
7.53	2.73014
7.54	2.66862
7.55	2.69033
7.56	2.68803
7.57	2.68046
7.58	2.67191
7.59	2.68145
7.6	2.68836
7.61	2.72652
7.62	2.68277
7.63	2.65842
7.64	2.65645
7.65	2.69856
7.66	2.69658
7.67	2.68112
7.68	2.68869
7.69	2.6831
7.7	2.67717
7.71	2.69132
7.72	2.70908
7.73	2.6956
7.74	2.67092
7.75	2.68507
7.76	2.66763
7.77	2.64362
7.78	2.65777
7.79	2.66961
7.8	2.64921
7.81	2.67257
7.82	2.66961
7.83	2.68375
7.84	2.67125
7.85	2.68704
7.86	2.66928
7.87	2.68046
7.88	2.66566
7.89	2.6775
7.9	2.68704
7.91	2.71402
7.92	2.68935
7.93	2.6752
7.94	2.64987
7.95	2.68441
7.96	2.66369
7.97	2.67948
7.98	2.66895
7.99	2.69329
8	2.69198
8.01	2.6877
8.02	2.67652
8.03	2.68836
8.04	2.67356
8.05	2.68967
8.06	2.68967
8.07	2.67224
8.08	2.65119
8.09	2.63704
8.1	2.66566
8.11	2.67685
8.12	2.65842
8.13	2.67487
8.14	2.70185
8.15	2.69987
8.16	2.69757
8.17	2.67816
8.18	2.65842
8.19	2.70974
8.2	2.70777
8.21	2.67948
8.22	2.66237
8.23	2.67454
8.24	2.67356
8.25	2.68935
8.26	2.72389
8.27	2.66895
8.28	2.67487
8.29	2.66336
8.3	2.69132
8.31	2.71369
8.32	2.67388
8.33	2.70481
8.34	2.67388
8.35	2.66632
8.36	2.67553
8.37	2.6831
8.38	2.68671
8.39	2.70744
8.4	2.66862
8.41	2.64428
8.42	2.65974
8.43	2.67685
8.44	2.67257
8.45	2.65283
8.46	2.67125
8.47	2.66829
8.48	2.68935
8.49	2.70086
8.5	2.70415
8.51	2.70908
8.52	2.71928
8.53	2.70481
8.54	2.68704
8.55	2.68178
8.56	2.68737
8.57	2.66862
8.58	2.6604
8.59	2.67257
8.6	2.66007
8.61	2.67125
8.62	2.6877
8.63	2.66994
8.64	2.66007
8.65	2.66237
8.66	2.65974
8.67	2.66007
8.68	2.66204
8.69	2.67454
8.7	2.67092
8.71	2.64592
8.72	2.64921
8.73	2.66566
8.74	2.65184
8.75	2.68178
8.76	2.65217
8.77	2.68671
8.78	2.68178
8.79	2.67981
8.8	2.68178
8.81	2.69329
8.82	2.67882
8.83	2.66632
8.84	2.6752
8.85	2.66204
8.86	2.66204
8.87	2.63934
8.88	2.65941
8.89	2.6854
8.9	2.70053
8.91	2.68902
8.92	2.68408
8.93	2.70349
8.94	2.70579
8.95	2.67948
8.96	2.67553
8.97	2.72125
8.98	2.66928
8.99	2.64395
9	2.66829
9.01	2.70119
9.02	2.69296
9.03	2.69264
9.04	2.67224
9.05	2.67257
9.06	2.67158
9.07	2.67125
9.08	2.65908
9.09	2.6775
9.1	2.66007
9.11	2.70086
9.12	2.69362
9.13	2.66698
9.14	2.67257
9.15	2.68737
9.16	2.66665
9.17	2.66237
9.18	2.66763
9.19	2.69165
9.2	2.66138
9.21	2.6423
9.22	2.6854
9.23	2.67027
9.24	2.66698
9.25	2.64823
9.26	2.68606
9.27	2.65481
9.28	2.66961
9.29	2.6729
9.3	2.64395
9.31	2.64296
9.32	2.66402
9.33	2.65184
9.34	2.61401
9.35	2.65546
9.36	2.665
9.37	2.69165
9.38	2.65744
9.39	2.69264
9.4	2.68704
9.41	2.68244
9.42	2.6752
9.43	2.69592
9.44	2.68342
9.45	2.61994
9.46	2.66303
9.47	2.66566
9.48	2.62125
9.49	2.67882
9.5	2.72356
9.51	2.68046
9.52	2.66632
9.53	2.69132
9.54	2.67323
9.55	2.65842
9.56	2.64823
9.57	2.66467
9.58	2.67717
9.59	2.66698
9.6	2.66336
9.61	2.66434
9.62	2.66533
9.63	2.66665
9.64	2.67553
9.65	2.65415
9.66	2.66829
9.67	2.67257
9.68	2.66665
9.69	2.67125
9.7	2.66007
9.71	2.66566
9.72	2.63836
9.73	2.6525
9.74	2.65711
9.75	2.66928
9.76	2.66434
9.77	2.66566
9.78	2.66369
9.79	2.6252
9.8	2.67586
9.81	2.6956
9.82	2.66303
9.83	2.70546
9.84	2.69921
9.85	2.67388
9.86	2.67915
9.87	2.68967
9.88	2.69264
9.89	2.65809
9.9	2.66895
9.91	2.665
9.92	2.68573
9.93	2.67092
9.94	2.6752
9.95	2.69198
9.96	2.66698
9.97	2.67487
9.98	2.68211
9.99	2.66895
10	2.66829
10.01	2.69395
10.02	2.6877
10.03	2.68671
10.04	2.65612
10.05	2.64099
10.06	2.65184
10.07	2.66402
10.08	2.68671
10.09	2.66862
10.1	2.67027
10.11	2.69
10.12	2.64855
10.13	2.65842
10.14	2.66204
10.15	2.69264
10.16	2.69428
10.17	2.66829
10.18	2.65513
10.19	2.66763
10.2	2.67421
10.21	2.68112
10.22	2.65184
10.23	2.69099
10.24	2.64855
10.25	2.65448
10.26	2.69428
10.27	2.66073
10.28	2.61599
10.29	2.64724
10.3	2.63474
10.31	2.6525
10.32	2.66369
10.33	2.66402
10.34	2.67356
10.35	2.69132
10.36	2.66763
10.37	2.66665
10.38	2.64954
10.39	2.67224
10.4	2.66467
10.41	2.67027
10.42	2.65119
10.43	2.66698
10.44	2.66698
10.45	2.66533
10.46	2.67191
10.47	2.65448
10.48	2.65086
10.49	2.66566
10.5	2.66928
10.51	2.67652
10.52	2.6604
10.53	2.66171
10.54	2.67356
10.55	2.64395
10.56	2.6377
10.57	2.69691
10.58	2.6854
10.59	2.65152
10.6	2.68046
10.61	2.67191
10.62	2.67652
10.63	2.66994
10.64	2.65974
10.65	2.66467
10.66	2.65842
10.67	2.65382
10.68	2.67652
10.69	2.67257
10.7	2.68704
10.71	2.65744
10.72	2.67915
10.73	2.63803
10.74	2.66138
10.75	2.6479
10.76	2.63737
10.77	2.67092
10.78	2.6525
10.79	2.66829
10.8	2.64395
10.81	2.64494
10.82	2.63836
10.83	2.63309
10.84	2.67454
10.85	2.66467
10.86	2.64494
10.87	2.64592
10.88	2.6525
10.89	2.66237
10.9	2.66632
10.91	2.64757
10.92	2.64099
10.93	2.69296
10.94	2.65908
10.95	2.66402
10.96	2.69395
10.97	2.64823
10.98	2.65382
10.99	2.64823
11	2.66467
11.01	2.65678
11.02	2.69198
11.03	2.65513
11.04	2.63704
11.05	2.66763
11.06	2.68474
11.07	2.67586
11.08	2.67191
11.09	2.6729
11.1	2.68935
11.11	2.6525
11.12	2.68408
11.13	2.67915
11.14	2.68704
11.15	2.71139
11.16	2.69395
11.17	2.65184
11.18	2.6377
11.19	2.68079
11.2	2.68013
11.21	2.66599
11.22	2.69
11.23	2.68639
11.24	2.68375
11.25	2.68112
11.26	2.68408
11.27	2.66994
11.28	2.69691
11.29	2.67092
11.3	2.65645
11.31	2.65777
11.32	2.68441
11.33	2.64132
11.34	2.65711
11.35	2.65744
11.36	2.65086
11.37	2.64757
11.38	2.66336
11.39	2.6877
11.4	2.68244
11.41	2.6604
11.42	2.66829
11.43	2.65316
11.44	2.65053
11.45	2.67323
11.46	2.68145
11.47	2.68737
11.48	2.65711
11.49	2.67421
11.5	2.66796
11.51	2.66106
11.52	2.65448
11.53	2.665
11.54	2.67553
11.55	2.68244
11.56	2.68441
11.57	2.6831
11.58	2.69296
11.59	2.67652
11.6	2.65283
11.61	2.64954
11.62	2.68441
11.63	2.68244
11.64	2.66434
11.65	2.6706
11.66	2.66698
11.67	2.64066
11.68	2.66632
11.69	2.66994
11.7	2.67454
11.71	2.6775
11.72	2.67717
11.73	2.68671
11.74	2.64888
11.75	2.64757
11.76	2.66369
11.77	2.64395
11.78	2.66599
11.79	2.63671
11.8	2.66895
11.81	2.67685
11.82	2.66994
11.83	2.66796
11.84	2.64461
11.85	2.66698
11.86	2.64461
11.87	2.65908
11.88	2.65875
11.89	2.6423
11.9	2.66402
11.91	2.63704
11.92	2.67257
11.93	2.66237
11.94	2.64757
11.95	2.69329
11.96	2.6525
11.97	2.66533
11.98	2.64395
11.99	2.68178
12	2.68079
12.01	2.67191
12.02	2.70086
12.03	2.65415
12.04	2.68342
12.05	2.65448
12.06	2.62849
12.07	2.6525
12.08	2.66369
12.09	2.65842
12.1	2.66566
12.11	2.68342
12.12	2.66467
12.13	2.65579
12.14	2.65448
12.15	2.65184
12.16	2.64329
12.17	2.65809
12.18	2.63836
12.19	2.63704
12.2	2.63507
12.21	2.67652
12.22	2.67257
12.23	2.69198
12.24	2.65513
12.25	2.63803
12.26	2.66599
12.27	2.6752
12.28	2.70053
12.29	2.66402
12.3	2.65086
12.31	2.6627
12.32	2.66928
12.33	2.65678
12.34	2.64954
12.35	2.68737
12.36	2.67487
12.37	2.66402
12.38	2.65777
12.39	2.66698
12.4	2.67257
12.41	2.66566
12.42	2.66369
12.43	2.6525
12.44	2.68408
12.45	2.63573
12.46	2.64263
12.47	2.66237
12.48	2.64263
12.49	2.65875
12.5	2.63737
12.51	2.64592
12.52	2.66336
12.53	2.66731
12.54	2.65974
12.55	2.66698
12.56	2.68013
12.57	2.65579
12.58	2.64888
12.59	2.65119
12.6	2.64691
12.61	2.66303
12.62	2.70086
12.63	2.65875
12.64	2.68112
12.65	2.65119
12.66	2.66731
12.67	2.68507
12.68	2.67454
12.69	2.62915
12.7	2.64066
12.71	2.66467
12.72	2.6604
12.73	2.66632
12.74	2.67652
12.75	2.68079
12.76	2.67388
12.77	2.68474
12.78	2.68244
12.79	2.67849
12.8	2.6525
12.81	2.63967
12.82	2.64362
12.83	2.66007
12.84	2.66566
12.85	2.66895
12.86	2.67356
12.87	2.63342
12.88	2.66665
12.89	2.66796
12.9	2.71303
12.91	2.67553
12.92	2.65448
12.93	2.6604
12.94	2.65777
12.95	2.64691
12.96	2.66665
12.97	2.66829
12.98	2.67257
12.99	2.67816
13	2.66138
13.01	2.66171
13.02	2.65448
13.03	2.65086
13.04	2.65711
13.05	2.64823
13.06	2.67125
13.07	2.63836
13.08	2.65415
13.09	2.65645
13.1	2.6423
13.11	2.63737
13.12	2.68639
13.13	2.65941
13.14	2.66007
13.15	2.65711
13.16	2.63474
13.17	2.67257
13.18	2.66566
13.19	2.67158
13.2	2.65546
13.21	2.66007
13.22	2.64823
13.23	2.62684
13.24	2.65744
13.25	2.66402
13.26	2.66895
13.27	2.66533
13.28	2.67323
13.29	2.63244
13.3	2.65283
13.31	2.65875
13.32	2.66763
13.33	2.66336
13.34	2.66731
13.35	2.65283
13.36	2.665
13.37	2.66073
13.38	2.65744
13.39	2.62882
13.4	2.64592
13.41	2.66073
13.42	2.65086
13.43	2.6729
13.44	2.65546
13.45	2.64559
13.46	2.64263
13.47	2.64296
13.48	2.66007
13.49	2.64691
13.5	2.6479
13.51	2.6173
13.52	2.65645
13.53	2.67158
13.54	2.66467
13.55	2.69264
13.56	2.67323
13.57	2.67191
13.58	2.62323
13.59	2.62553
13.6	2.67981
13.61	2.64395
13.62	2.64527
13.63	2.6775
13.64	2.65875
13.65	2.68112
13.66	2.65744
13.67	2.64724
13.68	2.65119
13.69	2.65579
13.7	2.66895
13.71	2.63507
13.72	2.63507
13.73	2.65711
13.74	2.65448
