"BIO-KINE ASCII FILE"
"_COMMENT"	"MOS-500 Spectrometer"
"_COMMENT"	"Kinetics measurement"
"_COMMENT"	"Y Unit : Volt,  X Unit : s"
"_COMMENT"	"Excitation wavelength : 380 nm"
"_COMMENT"	"Fentes bandwidth =  1 nm"
"_COMMENT"	"HV= 1000V"
"_COMMENT"	"Timebase  1 =  .01 s   3001 pts"
"_SFM"	"SFM-400 /S  Advanced mode"
"_SFM"	"Ratio : S1: 2.5, S2: 0, S3: 0, S4: 1"
"_SFM"	"Content : S1: , S2: , S3: , S4:"
"_SFM"	"Concentration : S1: , S2: , S3: , S4:"
"_SFM"	"Total volume : 209 µl  Flow : 3.5 mL/s"
"_SFM"	"Acquisition start :  10 ms before stop"
"_SFM"	"cuve=FC-15, s1=10 ml , s2=10 ml , s3=10 ml , s4=1.9 ml"
"_UNITX"	"s"
"_UNITY"	"Volt"
"_DELTAX"	0
"_DATA"
1e-300	2.66237
0.01	2.65579
0.02	2.62553
0.03	2.66369
0.04	2.69
0.05	2.71007
0.06	2.7354
0.07	2.77126
0.08	2.77849
0.09	2.77323
0.1	2.7808
0.11	2.80974
0.12	2.8229
0.13	2.79198
0.14	2.81961
0.15	2.8433
0.16	2.81731
0.17	2.83277
0.18	2.83968
0.19	2.84001
0.2	2.87455
0.21	2.83211
0.22	2.81632
0.23	2.83146
0.24	2.84823
0.25	2.8308
0.26	2.79626
0.27	2.82817
0.28	2.85415
0.29	2.85547
0.3	2.89527
0.31	2.86863
0.32	2.82586
0.33	2.82718
0.34	2.83869
0.35	2.85185
0.36	2.85284
0.37	2.84955
0.38	2.83409
0.39	2.85054
0.4	2.8354
0.41	2.84264
0.42	2.85876
0.43	2.84757
0.44	2.84429
0.45	2.82422
0.46	2.83507
0.47	2.86633
0.48	2.85251
0.49	2.85152
0.5	2.85777
0.51	2.85646
0.52	2.86534
0.53	2.81665
0.54	2.8229
0.55	2.84659
0.56	2.84988
0.57	2.86961
0.58	2.84692
0.59	2.84988
0.6	2.80349
0.61	2.82521
0.62	2.85876
0.63	2.84264
0.64	2.81731
0.65	2.83244
0.66	2.86106
0.67	2.85744
0.68	2.86238
0.69	2.83606
0.7	2.8581
0.71	2.86896
0.72	2.87192
0.73	2.83935
0.74	2.83573
0.75	2.83343
0.76	2.82882
0.77	2.83836
0.78	2.8558
0.79	2.85679
0.8	2.85942
0.81	2.86369
0.82	2.82389
0.83	2.81665
0.84	2.81731
0.85	2.86567
0.86	2.87685
0.87	2.83376
0.88	2.82751
0.89	2.7956
0.9	2.8433
0.91	2.83573
0.92	2.80251
0.93	2.80744
0.94	2.8002
0.95	2.81073
0.96	2.8229
0.97	2.8229
0.98	2.82619
0.99	2.82652
1	2.79231
1.01	2.82422
1.02	2.8683
1.03	2.85251
1.04	2.84692
1.05	2.83376
1.06	2.83935
1.07	2.83376
1.08	2.83606
1.09	2.84231
1.1	2.86205
1.11	2.84922
1.12	2.84034
1.13	2.84363
1.14	2.84988
1.15	2.8456
1.16	2.81599
1.17	2.80744
1.18	2.8354
1.19	2.81994
1.2	2.81435
1.21	2.83639
1.22	2.85514
1.23	2.81336
1.24	2.82257
1.25	2.85152
1.26	2.83935
1.27	2.83113
1.28	2.82784
1.29	2.85613
1.3	2.84659
1.31	2.83935
1.32	2.84527
1.33	2.84889
1.34	2.83705
1.35	2.8058
1.36	2.83902
1.37	2.82619
1.38	2.84297
1.39	2.83244
1.4	2.8285
1.41	2.79626
1.42	2.82652
1.43	2.83343
1.44	2.841
1.45	2.81271
1.46	2.79955
1.47	2.78705
1.48	2.81336
1.49	2.8331
1.5	2.82126
1.51	2.84889
1.52	2.86369
1.53	2.82488
1.54	2.84297
1.55	2.81336
1.56	2.80974
1.57	2.8058
1.58	2.82389
1.59	2.78738
1.6	2.79198
1.61	2.8354
1.62	2.80843
1.63	2.82718
1.64	2.82455
1.65	2.79165
1.66	2.80843
1.67	2.8081
1.68	2.80152
1.69	2.81797
1.7	2.82027
1.71	2.81961
1.72	2.83211
1.73	2.82915
1.74	2.82455
1.75	2.82027
1.76	2.82027
1.77	2.81863
1.78	2.82422
1.79	2.77816
1.8	2.8354
1.81	2.82126
1.82	2.81863
1.83	2.82159
1.84	2.81007
1.85	2.8104
1.86	2.84264
1.87	2.79757
1.88	2.77224
1.89	2.78803
1.9	2.78573
1.91	2.79428
1.92	2.80942
1.93	2.81501
1.94	2.84067
1.95	2.83606
1.96	2.81238
1.97	2.8308
1.98	2.83836
1.99	2.80152
2	2.83343
2.01	2.8104
2.02	2.81073
2.03	2.79593
2.04	2.82981
2.05	2.84396
2.06	2.84132
2.07	2.82817
2.08	2.8183
2.09	2.83705
2.1	2.79955
2.11	2.7979
2.12	2.80317
2.13	2.79066
2.14	2.80119
2.15	2.83573
2.16	2.82356
2.17	2.84264
2.18	2.80547
2.19	2.79823
2.2	2.80448
2.21	2.78803
2.22	2.81764
2.23	2.81172
2.24	2.80284
2.25	2.85152
2.26	2.84461
2.27	2.79132
2.28	2.79988
2.29	2.81271
2.3	2.80349
2.31	2.83836
2.32	2.82685
2.33	2.82323
2.34	2.82323
2.35	2.81928
2.36	2.83935
2.37	2.80185
2.38	2.81106
2.39	2.81205
2.4	2.81665
2.41	2.81567
2.42	2.81369
2.43	2.7877
2.44	2.83639
2.45	2.78836
2.46	2.77849
2.47	2.80777
2.48	2.80974
2.49	2.80613
2.5	2.78573
2.51	2.77652
2.52	2.80317
2.53	2.82915
2.54	2.77915
2.55	2.79066
2.56	2.82159
2.57	2.81764
2.58	2.8058
2.59	2.80382
2.6	2.78968
2.61	2.79198
2.62	2.80317
2.63	2.7752
2.64	2.80251
2.65	2.79264
2.66	2.79856
2.67	2.80876
2.68	2.81139
2.69	2.77619
2.7	2.78968
2.71	2.77619
2.72	2.80777
2.73	2.79428
2.74	2.79066
2.75	2.81632
2.76	2.79922
2.77	2.81896
2.78	2.80942
2.79	2.81139
2.8	2.80317
2.81	2.7877
2.82	2.7933
2.83	2.80382
2.84	2.80744
2.85	2.80974
2.86	2.78639
2.87	2.79001
2.88	2.81106
2.89	2.81139
2.9	2.81468
2.91	2.78145
2.92	2.80843
2.93	2.7956
2.94	2.78474
2.95	2.82356
2.96	2.81271
2.97	2.77816
2.98	2.80251
2.99	2.79757
3	2.80317
3.01	2.79066
3.02	2.78277
3.03	2.83705
3.04	2.81534
3.05	2.83014
3.06	2.79889
3.07	2.79066
3.08	2.79955
3.09	2.83113
3.1	2.80909
3.11	2.79264
3.12	2.82521
3.13	2.79264
3.14	2.81896
3.15	2.81928
3.16	2.81599
3.17	2.81961
3.18	2.77619
3.19	2.78047
3.2	2.79066
3.21	2.81106
3.22	2.76468
3.23	2.80744
3.24	2.77718
3.25	2.78014
3.26	2.79626
3.27	2.8285
3.28	2.80284
3.29	2.78409
3.3	2.79297
3.31	2.8308
3.32	2.79132
3.33	2.78343
3.34	2.8058
3.35	2.76764
3.36	2.78244
3.37	2.81172
3.38	2.7808
3.39	2.7831
3.4	2.79527
3.41	2.77323
3.42	2.80678
3.43	2.80053
3.44	2.80185
3.45	2.77191
3.46	2.76566
3.47	2.80317
3.48	2.80415
3.49	2.7933
3.5	2.79264
3.51	2.79856
3.52	2.77849
3.53	2.78836
3.54	2.79724
3.55	2.78573
3.56	2.82027
3.57	2.79198
3.58	2.77422
3.59	2.77882
3.6	2.80777
3.61	2.78409
3.62	2.7979
3.63	2.76994
3.64	2.78935
3.65	2.7854
3.66	2.81106
3.67	2.76928
3.68	2.79297
3.69	2.79724
3.7	2.76731
3.71	2.77915
3.72	2.80152
3.73	2.78902
3.74	2.78672
3.75	2.78738
3.76	2.7729
3.77	2.79757
3.78	2.76994
3.79	2.82389
3.8	2.79198
3.81	2.79132
3.82	2.81238
3.83	2.79395
3.84	2.77191
3.85	2.76994
3.86	2.80152
3.87	2.80317
3.88	2.78507
3.89	2.80382
3.9	2.80843
3.91	2.8081
3.92	2.81238
3.93	2.79757
3.94	2.77784
3.95	2.7808
3.96	2.79626
3.97	2.80119
3.98	2.77652
3.99	2.78211
4	2.77981
4.01	2.8183
4.02	2.81172
4.03	2.80251
4.04	2.80909
4.05	2.79626
4.06	2.7683
4.07	2.80909
4.08	2.77224
4.09	2.80284
4.1	2.80909
4.11	2.77356
4.12	2.78935
4.13	2.78606
4.14	2.8104
4.15	2.80678
4.16	2.78409
4.17	2.78606
4.18	2.7956
4.19	2.75876
4.2	2.80251
4.21	2.81863
4.22	2.80678
4.23	2.78244
4.24	2.7604
4.25	2.79363
4.26	2.81205
4.27	2.79527
4.28	2.8058
4.29	2.80119
4.3	2.79034
4.31	2.76073
4.32	2.77257
4.33	2.77685
4.34	2.76007
4.35	2.78902
4.36	2.77356
4.37	2.80284
4.38	2.7752
4.39	2.75711
4.4	2.79626
4.41	2.81698
4.42	2.78211
4.43	2.74428
4.44	2.7729
4.45	2.80514
4.46	2.74922
4.47	2.74856
4.48	2.77619
4.49	2.79165
4.5	2.80481
4.51	2.79856
4.52	2.77356
4.53	2.79231
4.54	2.81501
4.55	2.79297
4.56	2.78014
4.57	2.79593
4.58	2.80843
4.59	2.79955
4.6	2.76468
4.61	2.74757
4.62	2.79757
4.63	2.75185
4.64	2.76501
4.65	2.75974
4.66	2.79395
4.67	2.77849
4.68	2.77487
4.69	2.78145
4.7	2.78211
4.71	2.78573
4.72	2.80613
4.73	2.80415
4.74	2.76731
4.75	2.77323
4.76	2.74658
4.77	2.79132
4.78	2.75349
4.79	2.74658
4.8	2.74823
4.81	2.76599
4.82	2.76599
4.83	2.77487
4.84	2.7808
4.85	2.8002
4.86	2.8058
4.87	2.75678
4.88	2.76106
4.89	2.7683
4.9	2.76073
4.91	2.77553
4.92	2.77619
4.93	2.78672
4.94	2.76336
4.95	2.8104
4.96	2.77685
4.97	2.76237
4.98	2.75119
4.99	2.80251
5	2.7354
5.01	2.77586
5.02	2.78409
5.03	2.78441
5.04	2.7831
5.05	2.78639
5.06	2.78441
5.07	2.77356
5.08	2.78705
5.09	2.76731
5.1	2.77323
5.11	2.75547
5.12	2.78145
5.13	2.76336
5.14	2.76566
5.15	2.75382
5.16	2.7877
5.17	2.79034
5.18	2.74428
5.19	2.76106
5.2	2.78145
5.21	2.78606
5.22	2.79165
5.23	2.76501
5.24	2.78178
5.25	2.75843
5.26	2.76961
5.27	2.76961
5.28	2.79034
5.29	2.75744
5.3	2.76237
5.31	2.77422
5.32	2.7729
5.33	2.77652
5.34	2.80218
5.35	2.79659
5.36	2.78935
5.37	2.8058
5.38	2.79724
5.39	2.79428
5.4	2.81994
5.41	2.7933
5.42	2.74987
5.43	2.75744
5.44	2.78606
5.45	2.80974
5.46	2.78869
5.47	2.7558
5.48	2.75678
5.49	2.76797
5.5	2.77257
5.51	2.78474
5.52	2.76534
5.53	2.80481
5.54	2.79066
5.55	2.77685
5.56	2.75744
5.57	2.79428
5.58	2.78573
5.59	2.76303
5.6	2.73869
5.61	2.76731
5.62	2.76501
5.63	2.79001
5.64	2.76073
5.65	2.76435
5.66	2.75744
5.67	2.77619
5.68	2.7729
5.69	2.77718
5.7	2.78343
5.71	2.78244
5.72	2.77586
5.73	2.77586
5.74	2.79001
5.75	2.77849
5.76	2.78211
5.77	2.7752
5.78	2.76205
5.79	2.79297
5.8	2.74626
5.81	2.7752
5.82	2.79132
5.83	2.78573
5.84	2.81303
5.85	2.77784
5.86	2.76698
5.87	2.7831
5.88	2.7275
5.89	2.78606
5.9	2.82685
5.91	2.78869
5.92	2.7808
5.93	2.7627
5.94	2.79231
5.95	2.76731
5.96	2.76862
5.97	2.79856
5.98	2.77422
5.99	2.76501
6	2.7854
6.01	2.75612
6.02	2.78836
6.03	2.78573
6.04	2.76632
6.05	2.74987
6.06	2.75481
6.07	2.76501
6.08	2.77093
6.09	2.74658
6.1	2.7275
6.11	2.74593
6.12	2.73474
6.13	2.76007
6.14	2.73211
6.15	2.76007
6.16	2.7627
6.17	2.78441
6.18	2.7683
6.19	2.75744
6.2	2.78803
6.21	2.80317
6.22	2.75908
6.23	2.78836
6.24	2.7604
6.25	2.75316
6.26	2.74724
6.27	2.75218
6.28	2.76698
6.29	2.72027
6.3	2.75053
6.31	2.76994
6.32	2.76435
6.33	2.77126
6.34	2.72586
6.35	2.73507
6.36	2.77455
6.37	2.7706
6.38	2.79922
6.39	2.7831
6.4	2.75941
6.41	2.77718
6.42	2.77751
6.43	2.75218
6.44	2.76336
6.45	2.76468
6.46	2.7729
6.47	2.77553
6.48	2.75053
6.49	2.7831
6.5	2.7581
6.51	2.75053
6.52	2.75645
6.53	2.7604
6.54	2.76698
6.55	2.75612
6.56	2.77553
6.57	2.7729
6.58	2.75119
6.59	2.77093
6.6	2.73343
6.61	2.74922
6.62	2.75382
6.63	2.74198
6.64	2.78047
6.65	2.76665
6.66	2.77619
6.67	2.77027
6.68	2.7706
6.69	2.76501
6.7	2.7502
6.71	2.7502
6.72	2.79165
6.73	2.77882
6.74	2.77981
6.75	2.7104
6.76	2.73474
6.77	2.71928
6.78	2.7479
6.79	2.76764
6.8	2.77323
6.81	2.75612
6.82	2.81797
6.83	2.76073
6.84	2.75283
6.85	2.74066
6.86	2.74329
6.87	2.76501
6.88	2.7558
6.89	2.74527
6.9	2.76665
6.91	2.76501
6.92	2.73047
6.93	2.75678
6.94	2.74626
6.95	2.73277
6.96	2.77356
6.97	2.79527
6.98	2.74856
6.99	2.75382
7	2.74428
7.01	2.79724
7.02	2.7683
7.03	2.74264
7.04	2.76632
7.05	2.75185
7.06	2.77455
7.07	2.7604
7.08	2.75316
7.09	2.7479
7.1	2.75152
7.11	2.73047
7.12	2.74593
7.13	2.76797
7.14	2.75415
7.15	2.73014
7.16	2.75316
7.17	2.74757
7.18	2.77159
7.19	2.75843
7.2	2.75349
7.21	2.73277
7.22	2.7604
7.23	2.77882
7.24	2.7558
7.25	2.75974
7.26	2.76139
7.27	2.77027
7.28	2.77191
7.29	2.77389
7.3	2.74099
7.31	2.74395
7.32	2.7706
7.33	2.76632
7.34	2.7377
7.35	2.71994
7.36	2.73277
7.37	2.78145
7.38	2.78441
7.39	2.76007
7.4	2.76599
7.41	2.76599
7.42	2.75711
7.43	2.76994
7.44	2.77389
7.45	2.79297
7.46	2.74691
7.47	2.74593
7.48	2.76007
7.49	2.7456
7.5	2.7854
7.51	2.74757
7.52	2.74132
7.53	2.75547
7.54	2.77487
7.55	2.78639
7.56	2.75349
7.57	2.76007
7.58	2.74922
7.59	2.74329
7.6	2.77718
7.61	2.7627
7.62	2.74757
7.63	2.75941
7.64	2.73178
7.65	2.74132
7.66	2.74001
7.67	2.76369
7.68	2.75316
7.69	2.73178
7.7	2.74099
7.71	2.77323
7.72	2.75185
7.73	2.7558
7.74	2.74165
7.75	2.76665
7.76	2.77323
7.77	2.75974
7.78	2.79066
7.79	2.76106
7.8	2.73474
7.81	2.75185
7.82	2.76731
7.83	2.71566
7.84	2.74066
7.85	2.74527
7.86	2.73178
7.87	2.73145
7.88	2.74428
7.89	2.75349
7.9	2.74198
7.91	2.75218
7.92	2.73145
7.93	2.75152
7.94	2.74395
7.95	2.71862
7.96	2.73836
7.97	2.71665
7.98	2.75843
7.99	2.74889
8	2.75218
8.01	2.74001
8.02	2.7627
8.03	2.78507
8.04	2.75908
8.05	2.75547
8.06	2.75876
8.07	2.73507
8.08	2.73606
8.09	2.76797
8.1	2.76007
8.11	2.74428
8.12	2.78409
8.13	2.76501
8.14	2.74066
8.15	2.74099
8.16	2.75053
8.17	2.75382
8.18	2.71829
8.19	2.74494
8.2	2.7502
8.21	2.75185
8.22	2.74724
8.23	2.73672
8.24	2.7831
8.25	2.74593
8.26	2.73968
8.27	2.74955
8.28	2.7354
8.29	2.77093
8.3	2.78343
8.31	2.76731
8.32	2.7252
8.33	2.73869
8.34	2.7683
8.35	2.76007
8.36	2.76007
8.37	2.76698
8.38	2.76797
8.39	2.77159
8.4	2.73343
8.41	2.71533
8.42	2.75251
8.43	2.73869
8.44	2.73474
8.45	2.71797
8.46	2.72783
8.47	2.7502
8.48	2.73014
8.49	2.7558
8.5	2.73507
8.51	2.74955
8.52	2.74691
8.53	2.74823
8.54	2.73014
8.55	2.73968
8.56	2.75448
8.57	2.76435
8.58	2.75612
8.59	2.7729
8.6	2.74691
8.61	2.75974
8.62	2.74955
8.63	2.72882
8.64	2.76205
8.65	2.78145
8.66	2.72882
8.67	2.75349
8.68	2.7377
8.69	2.72981
8.7	2.75744
8.71	2.74001
8.72	2.71007
8.73	2.75843
8.74	2.75119
8.75	2.75974
8.76	2.75974
8.77	2.74922
8.78	2.74922
8.79	2.74395
8.8	2.73014
8.81	2.74231
8.82	2.7331
8.83	2.72553
8.84	2.75185
8.85	2.7275
8.86	2.70053
8.87	2.76994
8.88	2.73441
8.89	2.75152
8.9	2.76665
8.91	2.77126
8.92	2.74494
8.93	2.74955
8.94	2.76961
8.95	2.72915
8.96	2.77093
8.97	2.73606
8.98	2.75119
8.99	2.7581
9	2.76435
9.01	2.7581
9.02	2.73244
9.03	2.74658
9.04	2.71961
9.05	2.73869
9.06	2.74428
9.07	2.74593
9.08	2.76205
9.09	2.73408
9.1	2.73836
9.11	2.76764
9.12	2.71764
9.13	2.72816
9.14	2.75908
9.15	2.75152
9.16	2.71731
9.17	2.71928
9.18	2.73573
9.19	2.73704
9.2	2.74198
9.21	2.73244
9.22	2.74264
9.23	2.7706
9.24	2.73704
9.25	2.7377
9.26	2.74264
9.27	2.73672
9.28	2.75251
9.29	2.7604
9.3	2.75415
9.31	2.73672
9.32	2.7331
9.33	2.73935
9.34	2.71369
9.35	2.71303
9.36	2.72948
9.37	2.74066
9.38	2.7456
9.39	2.73803
9.4	2.76501
9.41	2.76007
9.42	2.72356
9.43	2.72849
9.44	2.74362
9.45	2.74099
9.46	2.72093
9.47	2.74889
9.48	2.75711
9.49	2.73474
9.5	2.73112
9.51	2.73935
9.52	2.7456
9.53	2.76468
9.54	2.74494
9.55	2.72454
9.56	2.72718
9.57	2.73047
9.58	2.75119
9.59	2.73408
9.6	2.73244
9.61	2.70843
9.62	2.70875
9.63	2.75908
9.64	2.74494
9.65	2.71895
9.66	2.74658
9.67	2.74165
9.68	2.74527
9.69	2.70941
9.7	2.72948
9.71	2.76961
9.72	2.73112
9.73	2.71829
9.74	2.74001
9.75	2.74033
9.76	2.74658
9.77	2.75152
9.78	2.73968
9.79	2.74593
9.8	2.70612
9.81	2.75876
9.82	2.73441
9.83	2.75316
9.84	2.76961
9.85	2.7558
9.86	2.74494
9.87	2.73639
9.88	2.73408
9.89	2.76237
9.9	2.75941
9.91	2.75777
9.92	2.74626
9.93	2.71698
9.94	2.7627
9.95	2.74297
9.96	2.74955
9.97	2.75481
9.98	2.75514
9.99	2.71797
10	2.72125
10.01	2.73178
10.02	2.74297
10.03	2.74001
10.04	2.72685
10.05	2.73441
10.06	2.72981
10.07	2.76994
10.08	2.74264
10.09	2.70053
10.1	2.71336
10.11	2.71237
10.12	2.7479
10.13	2.73178
10.14	2.73244
10.15	2.71829
10.16	2.74691
10.17	2.73408
10.18	2.73112
10.19	2.73803
10.2	2.71862
10.21	2.7377
10.22	2.74691
10.23	2.74724
10.24	2.75777
10.25	2.73408
10.26	2.7377
10.27	2.73211
10.28	2.72125
10.29	2.7331
10.3	2.71073
10.31	2.73277
10.32	2.79823
10.33	2.7831
10.34	2.74922
10.35	2.76139
10.36	2.79132
10.37	2.7456
10.38	2.74856
10.39	2.73968
10.4	2.73935
10.41	2.76139
10.42	2.74593
10.43	2.75251
10.44	2.7558
10.45	2.7354
10.46	2.73145
10.47	2.7502
10.48	2.76172
10.49	2.7127
10.5	2.70843
10.51	2.77586
10.52	2.74494
10.53	2.72454
10.54	2.72553
10.55	2.72652
10.56	2.73935
10.57	2.74395
10.58	2.7081
10.59	2.7604
10.6	2.73211
10.61	2.70448
10.62	2.73112
10.63	2.74066
10.64	2.7558
10.65	2.73573
10.66	2.73079
10.67	2.71928
10.68	2.73112
10.69	2.72652
10.7	2.74593
10.71	2.70612
10.72	2.74757
10.73	2.7206
10.74	2.73606
10.75	2.7581
10.76	2.72356
10.77	2.7627
10.78	2.73573
10.79	2.76534
10.8	2.73803
10.81	2.7331
10.82	2.75053
10.83	2.71665
10.84	2.75086
10.85	2.72422
10.86	2.73014
10.87	2.75941
10.88	2.75086
10.89	2.75744
10.9	2.73408
10.91	2.70678
10.92	2.72487
10.93	2.77323
10.94	2.75481
10.95	2.72093
10.96	2.72191
10.97	2.74001
10.98	2.7729
10.99	2.73408
11	2.71073
11.01	2.72553
11.02	2.71665
11.03	2.73112
11.04	2.74593
11.05	2.74264
11.06	2.77224
11.07	2.74001
11.08	2.72356
11.09	2.74626
11.1	2.77981
11.11	2.76139
11.12	2.75514
11.13	2.7377
11.14	2.72257
11.15	2.74428
11.16	2.70974
11.17	2.73968
11.18	2.75612
11.19	2.73376
11.2	2.7581
11.21	2.73737
11.22	2.76534
11.23	2.76566
11.24	2.71895
11.25	2.72158
11.26	2.74362
11.27	2.73408
11.28	2.71928
11.29	2.72454
11.3	2.73507
11.31	2.75152
11.32	2.72685
11.33	2.73145
11.34	2.71369
11.35	2.74691
11.36	2.74362
11.37	2.7377
11.38	2.75711
11.39	2.74856
11.4	2.71698
11.41	2.76468
11.42	2.75678
11.43	2.71961
11.44	2.69823
11.45	2.76435
11.46	2.73112
11.47	2.73474
11.48	2.74527
11.49	2.72849
11.5	2.70875
11.51	2.73112
11.52	2.71994
11.53	2.70514
11.54	2.75777
11.55	2.71665
11.56	2.74231
11.57	2.75382
11.58	2.73935
11.59	2.74001
11.6	2.73014
11.61	2.73935
11.62	2.72323
11.63	2.70908
11.64	2.72027
11.65	2.72783
11.66	2.73935
11.67	2.6877
11.68	2.71139
11.69	2.73902
11.7	2.74132
11.71	2.7479
11.72	2.7252
11.73	2.76303
11.74	2.71402
11.75	2.71599
11.76	2.69724
11.77	2.73507
11.78	2.7354
11.79	2.73902
11.8	2.74724
11.81	2.73112
11.82	2.71797
11.83	2.72652
11.84	2.72093
11.85	2.73672
11.86	2.74922
11.87	2.75053
11.88	2.7354
11.89	2.75547
11.9	2.73902
11.91	2.6877
11.92	2.69823
11.93	2.74362
11.94	2.73968
11.95	2.75941
11.96	2.74033
11.97	2.7502
11.98	2.71237
11.99	2.70678
12	2.7229
12.01	2.74165
12.02	2.72224
12.03	2.74461
12.04	2.70481
12.05	2.72783
12.06	2.73737
12.07	2.72915
12.08	2.7025
12.09	2.75251
12.1	2.73047
12.11	2.72027
12.12	2.73014
12.13	2.71928
12.14	2.72257
12.15	2.71106
12.16	2.73376
12.17	2.7127
12.18	2.74691
12.19	2.7456
12.2	2.72718
12.21	2.72158
12.22	2.75251
12.23	2.73803
12.24	2.74264
12.25	2.75119
12.26	2.72553
12.27	2.70382
12.28	2.73902
12.29	2.73079
12.3	2.74691
12.31	2.73836
12.32	2.72422
12.33	2.74198
12.34	2.70645
12.35	2.69033
12.36	2.74066
12.37	2.73836
12.38	2.74066
12.39	2.72849
12.4	2.73079
12.41	2.72948
12.42	2.7104
12.43	2.71073
12.44	2.73935
12.45	2.71303
12.46	2.74626
12.47	2.71764
12.48	2.73573
12.49	2.70481
12.5	2.78409
12.51	2.74856
12.52	2.72487
12.53	2.7354
12.54	2.71665
12.55	2.71895
12.56	2.74461
12.57	2.77553
12.58	2.74494
12.59	2.72323
12.6	2.73836
12.61	2.75349
12.62	2.72323
12.63	2.71369
12.64	2.69
12.65	2.74823
12.66	2.75547
12.67	2.73639
12.68	2.73343
12.69	2.70514
12.7	2.75053
12.71	2.70218
12.72	2.70612
12.73	2.73047
12.74	2.70481
12.75	2.71303
12.76	2.72718
12.77	2.73606
12.78	2.77487
12.79	2.75316
12.8	2.73047
12.81	2.7479
12.82	2.72356
12.83	2.73902
12.84	2.77619
12.85	2.74757
12.86	2.71566
12.87	2.73869
12.88	2.74856
12.89	2.7354
12.9	2.70053
12.91	2.70546
12.92	2.72981
12.93	2.75218
12.94	2.71632
12.95	2.70777
12.96	2.73737
12.97	2.7558
12.98	2.7479
12.99	2.7081
13	2.71303
13.01	2.73343
13.02	2.74593
13.03	2.72389
13.04	2.7025
13.05	2.73474
13.06	2.70777
13.07	2.72257
13.08	2.74033
13.09	2.7354
13.1	2.71303
13.11	2.70678
13.12	2.70974
13.13	2.71566
13.14	2.71731
13.15	2.74527
13.16	2.72685
13.17	2.7081
13.18	2.74626
13.19	2.715
13.2	2.72454
13.21	2.7081
13.22	2.71731
13.23	2.72027
13.24	2.74461
13.25	2.74395
13.26	2.72191
13.27	2.72191
13.28	2.72224
13.29	2.72389
13.3	2.73277
13.31	2.69165
13.32	2.72816
13.33	2.72882
13.34	2.7331
13.35	2.72619
13.36	2.72981
13.37	2.72158
13.38	2.72849
13.39	2.71303
13.4	2.71829
13.41	2.71237
13.42	2.71369
13.43	2.6956
13.44	2.71369
13.45	2.72356
13.46	2.7002
13.47	2.74033
13.48	2.72948
13.49	2.73441
13.5	2.72125
13.51	2.7331
13.52	2.69428
13.53	2.73079
13.54	2.74033
13.55	2.6979
13.56	2.72816
13.57	2.72948
13.58	2.66928
13.59	2.71171
13.6	2.73507
13.61	2.7275
13.62	2.73704
13.63	2.7104
13.64	2.72849
13.65	2.76369
13.66	2.72849
13.67	2.715
13.68	2.73704
13.69	2.72652
13.7	2.72849
13.71	2.72981
13.72	2.70843
13.73	2.6979
13.74	2.70546
13.75	2.73935
13.76	2.72454
13.77	2.7025
