"BIO-KINE ASCII FILE"
"_COMMENT"	"MOS-500 Spectrometer"
"_COMMENT"	"Kinetics measurement"
"_COMMENT"	"Y Unit : Volt,  X Unit : s"
"_COMMENT"	"Excitation wavelength : 380 nm"
"_COMMENT"	"Fentes bandwidth =  1 nm"
"_COMMENT"	"HV= 1000V"
"_COMMENT"	"Timebase  1 =  .01 s   5001 pts"
"_SFM"	"SFM-400 /S  Advanced mode"
"_SFM"	"Ratio : S1: 2.5, S2: 0, S3: 0, S4: 1"
"_SFM"	"Content : S1: , S2: , S3: , S4:"
"_SFM"	"Concentration : S1: , S2: , S3: , S4:"
"_SFM"	"Total volume : 209 µl  Flow : 3.5 mL/s"
"_SFM"	"Acquisition start :  10 ms before stop"
"_SFM"	"cuve=FC-15, s1=10 ml , s2=10 ml , s3=10 ml , s4=1.9 ml"
"_UNITX"	"s"
"_UNITY"	"Volt"
"_DELTAX"	0
"_DATA"
1e-300	2.97126
0.01	2.91633
0.02	2.91896
0.03	2.94166
0.04	2.98607
0.05	3.0137
0.06	3.04561
0.07	3.06238
0.08	3.11271
0.09	3.08739
0.1	3.11568
0.11	3.16041
0.12	3.14265
0.13	3.12423
0.14	3.11008
0.15	3.17423
0.16	3.17226
0.17	3.16239
0.18	3.12949
0.19	3.1387
0.2	3.12094
0.21	3.1512
0.22	3.1512
0.23	3.15153
0.24	3.1614
0.25	3.18443
0.26	3.17193
0.27	3.13114
0.28	3.13903
0.29	3.15647
0.3	3.1216
0.31	3.16239
0.32	3.1762
0.33	3.16436
0.34	3.17916
0.35	3.18081
0.36	3.14824
0.37	3.12258
0.38	3.16436
0.39	3.11271
0.4	3.14462
0.41	3.1512
0.42	3.15581
0.43	3.14101
0.44	3.1637
0.45	3.18607
0.46	3.14002
0.47	3.14429
0.48	3.13969
0.49	3.1614
0.5	3.17423
0.51	3.17226
0.52	3.15548
0.53	3.1818
0.54	3.14265
0.55	3.14298
0.56	3.17061
0.57	3.14989
0.58	3.09199
0.59	3.15055
0.6	3.15416
0.61	3.16272
0.62	3.14232
0.63	3.16041
0.64	3.16074
0.65	3.1614
0.66	3.11929
0.67	3.15614
0.68	3.16798
0.69	3.17587
0.7	3.18509
0.71	3.17259
0.72	3.13114
0.73	3.13772
0.74	3.16535
0.75	3.15614
0.76	3.14364
0.77	3.19199
0.78	3.11897
0.79	3.15087
0.8	3.14101
0.81	3.12489
0.82	3.11831
0.83	3.11173
0.84	3.14857
0.85	3.15614
0.86	3.13804
0.87	3.1637
0.88	3.14627
0.89	3.13739
0.9	3.14035
0.91	3.17324
0.92	3.18377
0.93	3.19199
0.94	3.14726
0.95	3.11337
0.96	3.14002
0.97	3.14561
0.98	3.116
0.99	3.10712
1	3.1387
1.01	3.09791
1.02	3.13179
1.03	3.12456
1.04	3.15449
1.05	3.15515
1.06	3.15416
1.07	3.1637
1.08	3.14397
1.09	3.13936
1.1	3.14068
1.11	3.14462
1.12	3.12324
1.13	3.13837
1.14	3.15548
1.15	3.14002
1.16	3.12258
1.17	3.1239
1.18	3.12225
1.19	3.11699
1.2	3.1035
1.21	3.12916
1.22	3.14068
1.23	3.13081
1.24	3.11633
1.25	3.13278
1.26	3.11962
1.27	3.10646
1.28	3.08311
1.29	3.12752
1.3	3.13508
1.31	3.08541
1.32	3.116
1.33	3.1466
1.34	3.10416
1.35	3.11469
1.36	3.13048
1.37	3.1364
1.38	3.09396
1.39	3.14726
1.4	3.13048
1.41	3.14035
1.42	3.11765
1.43	3.10087
1.44	3.11469
1.45	3.09429
1.46	3.11041
1.47	3.13048
1.48	3.09923
1.49	3.12587
1.5	3.11633
1.51	3.10252
1.52	3.09067
1.53	3.11962
1.54	3.1341
1.55	3.11864
1.56	3.10712
1.57	3.13278
1.58	3.11666
1.59	3.11337
1.6	3.14166
1.61	3.10679
1.62	3.11436
1.63	3.10581
1.64	3.10975
1.65	3.12653
1.66	3.13706
1.67	3.12291
1.68	3.10811
1.69	3.12587
1.7	3.11008
1.71	3.11864
1.72	3.09725
1.73	3.11897
1.74	3.08574
1.75	3.0887
1.76	3.11962
1.77	3.1137
1.78	3.12423
1.79	3.11732
1.8	3.12291
1.81	3.13443
1.82	3.07752
1.83	3.12883
1.84	3.10614
1.85	3.10778
1.86	3.08541
1.87	3.09035
1.88	3.13311
1.89	3.11403
1.9	3.10252
1.91	3.10219
1.92	3.10087
1.93	3.08837
1.94	3.07883
1.95	3.1091
1.96	3.07127
1.97	3.11206
1.98	3.10745
1.99	3.09989
2	3.10087
2.01	3.06995
2.02	3.07719
2.03	3.11271
2.04	3.08311
2.05	3.09199
2.06	3.08607
2.07	3.06962
2.08	3.07521
2.09	3.09857
2.1	3.11633
2.11	3.10975
2.12	3.10383
2.13	3.07291
2.14	3.07916
2.15	3.08508
2.16	3.08936
2.17	3.07686
2.18	3.10548
2.19	3.08081
2.2	3.0716
2.21	3.09035
2.22	3.08837
2.23	3.08969
2.24	3.11403
2.25	3.09561
2.26	3.07817
2.27	3.0887
2.28	3.091
2.29	3.07949
2.3	3.08508
2.31	3.15087
2.32	3.11403
2.33	3.08607
2.34	3.09692
2.35	3.10811
2.36	3.091
2.37	3.09166
2.38	3.08311
2.39	3.09528
2.4	3.08771
2.41	3.10614
2.42	3.11239
2.43	3.08212
2.44	3.09857
2.45	3.1035
2.46	3.08113
2.47	3.10482
2.48	3.09002
2.49	3.06699
2.5	3.05877
2.51	3.08936
2.52	3.07653
2.53	3.07488
2.54	3.10679
2.55	3.07916
2.56	3.07488
2.57	3.08739
2.58	3.08837
2.59	3.09232
2.6	3.08015
2.61	3.08706
2.62	3.06271
2.63	3.04988
2.64	3.08311
2.65	3.06995
2.66	3.0966
2.67	3.091
2.68	3.06337
2.69	3.06567
2.7	3.07225
2.71	3.08837
2.72	3.09692
2.73	3.11107
2.74	3.08837
2.75	3.09758
2.76	3.09331
2.77	3.1091
2.78	3.05778
2.79	3.0285
2.8	3.06765
2.81	3.07225
2.82	3.04396
2.83	3.06567
2.84	3.06732
2.85	3.06008
2.86	3.06798
2.87	3.07521
2.88	3.0785
2.89	3.0716
2.9	3.05975
2.91	3.05317
2.92	3.06732
2.93	3.07521
2.94	3.03146
2.95	3.0841
2.96	3.08245
2.97	3.06206
2.98	3.03212
2.99	3.0716
3	3.08048
3.01	3.08344
3.02	3.05153
3.03	3.05942
3.04	3.09594
3.05	3.04857
3.06	3.05515
3.07	3.05186
3.08	3.05153
3.09	3.0614
3.1	3.05186
3.11	3.07686
3.12	3.06765
3.13	3.02192
3.14	3.06469
3.15	3.07423
3.16	3.05416
3.17	3.06271
3.18	3.05909
3.19	3.07456
3.2	3.08278
3.21	3.05252
3.22	3.05712
3.23	3.066
3.24	3.08048
3.25	3.11239
3.26	3.08969
3.27	3.06206
3.28	3.07258
3.29	3.09035
3.3	3.08475
3.31	3.08574
3.32	3.0841
3.33	3.05679
3.34	3.08179
3.35	3.05515
3.36	3.06534
3.37	3.07949
3.38	3.0535
3.39	3.04429
3.4	3.05416
3.41	3.05679
3.42	3.08212
3.43	3.07554
3.44	3.04495
3.45	3.02587
3.46	3.05909
3.47	3.03508
3.48	3.04298
3.49	3.05482
3.5	3.02949
3.51	3.06831
3.52	3.09133
3.53	3.06929
3.54	3.03936
3.55	3.03607
3.56	3.05778
3.57	3.06666
3.58	3.06469
3.59	3.06206
3.6	3.05482
3.61	3.04133
3.62	3.08673
3.63	3.06798
3.64	3.00284
3.65	3.03245
3.66	3.08673
3.67	3.05811
3.68	3.05975
3.69	3.07982
3.7	3.03969
3.71	3.03771
3.72	3.03969
3.73	3.02423
3.74	3.04166
3.75	3.04857
3.76	3.04396
3.77	3.05449
3.78	3.04133
3.79	3.05745
3.8	3.05942
3.81	3.04923
3.82	3.04166
3.83	3.0637
3.84	3.05383
3.85	3.0739
3.86	3.07686
3.87	3.06534
3.88	3.05186
3.89	3.04067
3.9	3.03475
3.91	3.02554
3.92	3.05778
3.93	3.02949
3.94	3.03903
3.95	3.07949
3.96	3.05811
3.97	3.03048
3.98	3.04067
3.99	3.0512
4	3.04758
4.01	3.05679
4.02	3.0762
4.03	3.10087
4.04	3.066
4.05	3.04594
4.06	3.0637
4.07	3.04067
4.08	3.06436
4.09	3.04002
4.1	3.0114
4.11	3.02225
4.12	3.05646
4.13	3.07686
4.14	3.03738
4.15	3.04561
4.16	3.05252
4.17	3.05745
4.18	3.01403
4.19	3.03015
4.2	3.04627
4.21	3.04034
4.22	3.0308
4.23	3.06732
4.24	3.0262
4.25	3.02126
4.26	3.03048
4.27	3.041
4.28	3.04363
4.29	3.06798
4.3	3.016
4.31	3.04199
4.32	3.05252
4.33	3.01995
4.34	2.98936
4.35	3.04725
4.36	3.06534
4.37	3.04462
4.38	3.04232
4.39	3.04232
4.4	3.06831
4.41	3.02686
4.42	3.04495
4.43	3.04396
4.44	3.05054
4.45	3.04034
4.46	3.05317
4.47	3.08146
4.48	3.05581
4.49	3.03574
4.5	3.01567
4.51	3.00054
4.52	3.02554
4.53	3.04495
4.54	3.0262
4.55	3.01337
4.56	3.03969
4.57	3.0512
4.58	3.01436
4.59	3.03541
4.6	3.01863
4.61	3.03541
4.62	3.0137
4.63	3.02291
4.64	2.99692
4.65	2.99593
4.66	3.01929
4.67	3.02916
4.68	3.00153
4.69	3.02423
4.7	3.01436
4.71	2.99363
4.72	3.02324
4.73	3.05416
4.74	3.06173
4.75	3.02554
4.76	3.04298
4.77	3.03015
4.78	3.03344
4.79	3.01205
4.8	3.04857
4.81	3.01896
4.82	3.02751
4.83	3.04363
4.84	3.03508
4.85	3.01107
4.86	3.02751
4.87	3.02455
4.88	3.04199
4.89	3.04396
4.9	3.02653
4.91	3.03245
4.92	3.02061
4.93	3.03574
4.94	3.0739
4.95	3.05613
4.96	3.01469
4.97	2.98903
4.98	3.03146
4.99	3.03541
5	3.02061
5.01	3.03771
5.02	3.00482
5.03	3.00679
5.04	3.02225
5.05	3.0239
5.06	3.03738
5.07	3.0364
5.08	3.01995
5.09	3.01962
5.1	3.01962
5.11	2.97357
5.12	3.00416
5.13	3.0364
5.14	2.99232
5.15	3.00844
5.16	3.01172
5.17	3.04495
5.18	3.04561
5.19	2.99001
5.2	3.01337
5.21	3.00942
5.22	3.06403
5.23	3.0183
5.24	3.02554
5.25	3.03212
5.26	3.04298
5.27	3.03409
5.28	3.016
5.29	3.02686
5.3	3.04627
5.31	3.03278
5.32	3.06436
5.33	3.02587
5.34	3.016
5.35	3.0137
5.36	3.00515
5.37	3.03376
5.38	3.00449
5.39	3.01896
5.4	3.03245
5.41	3.00416
5.42	3.02488
5.43	3.00844
5.44	3.0308
5.45	2.99528
5.46	2.99922
5.47	3.01633
5.48	3.0058
5.49	3.01863
5.5	2.9683
5.51	3.01798
5.52	3.01962
5.53	3.00383
5.54	2.98804
5.55	3.04298
5.56	3.02225
5.57	3.01798
5.58	3.01271
5.59	3.02488
5.6	2.98311
5.61	2.99791
5.62	3.02423
5.63	3.05515
5.64	3.00054
5.65	3.01008
5.66	3.01567
5.67	3.01896
5.68	3.00251
5.69	3.01863
5.7	2.98705
5.71	2.98245
5.72	3.01666
5.73	2.98278
5.74	2.98541
5.75	3.00646
5.76	2.99593
5.77	3.00087
5.78	2.97653
5.79	2.99363
5.8	3.02192
5.81	2.98442
5.82	3.04495
5.83	3.01732
5.84	3.00251
5.85	2.99396
5.86	3.01501
5.87	3.00909
5.88	3.00153
5.89	3.0285
5.9	3.04857
5.91	3.01798
5.92	2.9864
5.93	3.02949
5.94	2.98672
5.95	3.01041
5.96	3.01074
5.97	2.98804
5.98	2.991
5.99	2.98738
6	2.99758
6.01	2.98442
6.02	2.99955
6.03	3.01436
6.04	3.03705
6.05	3.0137
6.06	3.02982
6.07	3.01469
6.08	3.01699
6.09	3.00712
6.1	2.97028
6.11	3.00745
6.12	3.01107
6.13	3.00942
6.14	2.97653
6.15	3.00613
6.16	3.00186
6.17	3.01337
6.18	2.98475
6.19	2.98607
6.2	2.99528
6.21	2.96962
6.22	2.97718
6.23	3.01337
6.24	2.99692
6.25	2.98475
6.26	2.99561
6.27	3.00679
6.28	2.991
6.29	2.9933
6.3	3.01699
6.31	3.02982
6.32	3.00251
6.33	2.99659
6.34	3.00186
6.35	2.99659
6.36	3.01469
6.37	3.01041
6.38	2.99034
6.39	3.00745
6.4	3.0035
6.41	3.00219
6.42	2.98475
6.43	2.99495
6.44	2.99955
6.45	2.98409
6.46	3.02587
6.47	2.966
6.48	2.97718
6.49	3.00844
6.5	3.04067
6.51	3.0035
6.52	2.99265
6.53	3.00449
6.54	2.98409
6.55	3.01238
6.56	2.9864
6.57	2.98245
6.58	2.97126
6.59	2.99659
6.6	3.00515
6.61	3.0058
6.62	3.01962
6.63	2.97389
6.64	2.99396
6.65	3.00811
6.66	3.02324
6.67	3.01271
6.68	3.01436
6.69	3.00942
6.7	3.01304
6.71	3.01699
6.72	3.00284
6.73	2.98376
6.74	2.97949
6.75	2.99034
6.76	2.9989
6.77	2.98804
6.78	2.96633
6.79	2.96271
6.8	3.04298
6.81	2.98508
6.82	2.9808
6.83	3.00876
6.84	2.94856
6.85	2.99199
6.86	2.97225
6.87	3.00383
6.88	3.00876
6.89	2.99692
6.9	2.94725
6.91	2.9808
6.92	2.99034
6.93	2.95876
6.94	3.00186
6.95	3.01172
6.96	3.02817
6.97	2.99626
6.98	2.98903
6.99	2.99133
7	3.00547
7.01	2.98014
7.02	2.99528
7.03	3.0114
7.04	2.98936
7.05	2.991
7.06	2.97554
7.07	2.97159
7.08	3.00186
7.09	3.01995
7.1	3.00251
7.11	3.00909
7.12	2.99166
7.13	2.96699
7.14	2.98475
7.15	3.02225
7.16	2.98113
7.17	2.99955
7.18	2.99265
7.19	2.98343
7.2	2.99922
7.21	2.97455
7.22	3.0035
7.23	2.9933
7.24	3.00679
7.25	2.99955
7.26	2.98705
7.27	3.0035
7.28	2.99955
7.29	2.99001
7.3	2.99659
7.31	2.98771
7.32	2.97554
7.33	2.9762
7.34	2.95514
7.35	2.95646
7.36	2.96435
7.37	2.9887
7.38	3.00153
7.39	2.97159
7.4	2.94363
7.41	2.95153
7.42	2.96403
7.43	2.99001
7.44	2.99626
7.45	2.97916
7.46	3.02554
7.47	3.01469
7.48	2.97718
7.49	2.97389
7.5	2.98574
7.51	2.99396
7.52	3.00876
7.53	2.9683
7.54	2.99791
7.55	2.97159
7.56	2.99297
7.57	3.01863
7.58	2.98771
7.59	3.00679
7.6	2.9762
7.61	2.97718
7.62	3.00646
7.63	2.9887
7.64	2.95449
7.65	2.97982
7.66	2.96863
7.67	2.96403
7.68	2.99232
7.69	2.97159
7.7	2.93639
7.71	2.95449
7.72	2.97718
7.73	2.97587
7.74	2.98179
7.75	2.96403
7.76	2.99725
7.77	2.95087
7.78	2.97061
7.79	2.9808
7.8	2.93968
7.81	2.98804
7.82	2.97521
7.83	2.97028
7.84	2.98771
7.85	2.95975
7.86	2.95613
7.87	2.97883
7.88	2.96008
7.89	2.99001
7.9	2.95514
7.91	2.9683
7.92	2.95745
7.93	2.9433
7.94	2.96567
7.95	2.94856
7.96	2.98278
7.97	2.99133
7.98	2.97982
7.99	2.96435
8	2.95942
8.01	3.00416
8.02	3.00712
8.03	2.97126
8.04	2.97488
8.05	2.96666
8.06	2.96205
8.07	2.99166
8.08	2.99495
8.09	2.97718
8.1	2.98903
8.11	2.97324
8.12	2.9785
8.13	3.00186
8.14	2.95218
8.15	2.97949
8.16	2.97686
8.17	2.96764
8.18	2.9535
8.19	2.93014
8.2	2.97159
8.21	2.97883
8.22	3.01205
8.23	3.00844
8.24	2.97028
8.25	2.99067
8.26	2.98146
8.27	2.95745
8.28	2.96797
8.29	2.96633
8.3	2.96205
8.31	2.98179
8.32	3.00284
8.33	2.98771
8.34	2.96435
8.35	2.9762
8.36	2.98278
8.37	2.98212
8.38	2.98343
8.39	2.96863
8.4	2.97751
8.41	2.95185
8.42	2.96435
8.43	2.97718
8.44	2.98245
8.45	3.00416
8.46	2.97653
8.47	2.99758
8.48	2.97949
8.49	2.97521
8.5	3.01008
8.51	2.95482
8.52	2.93672
8.53	2.97258
8.54	2.97817
8.55	2.99659
8.56	2.9785
8.57	3.03574
8.58	2.97455
8.59	2.97455
8.6	2.97488
8.61	2.93508
8.62	3.00844
8.63	2.97093
8.64	2.95317
8.65	2.95449
8.66	2.96041
8.67	2.97028
8.68	2.95416
8.69	2.96238
8.7	3.00383
8.71	2.99396
8.72	2.98574
8.73	2.95613
8.74	2.91863
8.75	2.97324
8.76	2.96896
8.77	2.97784
8.78	2.98672
8.79	2.9785
8.8	2.96172
8.81	2.96797
8.82	2.95087
8.83	2.94659
8.84	2.95909
8.85	2.94495
8.86	2.96041
8.87	2.98541
8.88	2.95416
8.89	2.97291
8.9	2.97455
8.91	2.96863
8.92	2.98179
8.93	2.97949
8.94	2.97455
8.95	2.94495
8.96	2.96074
8.97	2.97291
8.98	2.95547
8.99	2.97028
9	2.98804
9.01	2.96403
9.02	2.92718
9.03	2.95185
9.04	2.96732
9.05	2.98409
9.06	2.95712
9.07	2.96863
9.08	2.95679
9.09	2.93606
9.1	2.99561
9.11	2.96074
9.12	2.95975
9.13	2.97258
9.14	2.96501
9.15	2.93245
9.16	2.94922
9.17	2.9581
9.18	2.96403
9.19	2.98508
9.2	3.01205
9.21	2.99593
9.22	2.96896
9.23	2.95843
9.24	2.94528
9.25	2.96995
9.26	2.97784
9.27	2.95416
9.28	2.95284
9.29	2.96468
9.3	2.97225
9.31	2.916
9.32	2.94725
9.33	2.95482
9.34	2.96764
9.35	2.95514
9.36	2.94199
9.37	2.95087
9.38	2.95449
9.39	2.94363
9.4	2.94889
9.41	2.9762
9.42	2.9887
9.43	2.95876
9.44	3.00054
9.45	2.98311
9.46	2.93968
9.47	2.95975
9.48	2.98376
9.49	2.93277
9.5	2.92751
9.51	2.97225
9.52	2.92554
9.53	2.94725
9.54	2.95942
9.55	2.92488
9.56	2.93738
9.57	2.96468
9.58	2.9558
9.59	2.94363
9.6	2.96337
9.61	2.92883
9.62	2.95153
9.63	2.9558
9.64	2.97982
9.65	2.98376
9.66	2.95514
9.67	2.96074
9.68	2.93277
9.69	2.94955
9.7	2.9581
9.71	2.96896
9.72	2.92883
9.73	2.94363
9.74	2.96304
9.75	2.97554
9.76	2.97225
9.77	2.97028
9.78	2.9683
9.79	2.96962
9.8	2.98508
9.81	2.9637
9.82	2.96962
9.83	2.97587
9.84	2.95712
9.85	2.95909
9.86	2.96107
9.87	2.96074
9.88	2.97718
9.89	2.95646
9.9	2.96041
9.91	2.95185
9.92	2.94659
9.93	2.98804
9.94	2.97949
9.95	2.94659
9.96	2.94922
9.97	2.98343
9.98	2.94001
9.99	2.93574
10	2.966
10.01	2.96074
10.02	2.99034
10.03	2.95185
10.04	2.95021
10.05	2.92521
10.06	2.93837
10.07	2.95383
10.08	2.96534
10.09	2.95054
10.1	2.97949
10.11	2.92784
10.12	2.95975
10.13	2.93804
10.14	2.941
10.15	2.97587
10.16	2.92652
10.17	2.97422
10.18	2.95482
10.19	2.96139
10.2	2.95679
10.21	2.97587
10.22	2.97028
10.23	2.9762
10.24	2.95153
10.25	2.97817
10.26	2.94593
10.27	2.94034
10.28	2.941
10.29	2.98903
10.3	2.9535
10.31	2.94988
10.32	2.95021
10.33	2.91238
10.34	2.93574
10.35	2.95416
10.36	2.95613
10.37	2.95679
10.38	2.95778
10.39	2.92949
10.4	2.92324
10.41	2.95778
10.42	2.95909
10.43	2.9558
10.44	2.97455
10.45	2.93277
10.46	2.93935
10.47	2.92093
10.48	2.91008
10.49	2.97126
10.5	2.97291
10.51	2.94824
10.52	2.97324
10.53	2.96995
10.54	2.93738
10.55	2.9558
10.56	2.94133
10.57	2.92192
10.58	2.93245
10.59	2.9308
10.6	2.95153
10.61	2.97258
10.62	2.93475
10.63	2.9387
10.64	2.94199
10.65	2.93968
10.66	2.9308
10.67	2.93705
10.68	2.94001
10.69	2.96172
10.7	2.93672
10.71	2.96995
10.72	2.96238
10.73	2.96304
10.74	2.92784
10.75	2.96074
10.76	2.93804
10.77	2.94528
10.78	2.92159
10.79	2.94528
10.8	2.96732
10.81	2.98771
10.82	2.95646
10.83	2.96797
10.84	2.97225
10.85	2.9581
10.86	2.93277
10.87	2.91304
10.88	2.94626
10.89	2.97422
10.9	2.96205
10.91	2.95218
10.92	2.93968
10.93	2.94922
10.94	2.94856
10.95	2.95054
10.96	2.96699
10.97	2.97159
10.98	2.96304
10.99	2.95185
11	2.92455
11.01	2.92652
11.02	2.9512
11.03	2.9535
11.04	2.93606
11.05	2.94396
11.06	2.97028
11.07	2.95054
11.08	2.91666
11.09	2.9137
11.1	2.95021
11.11	2.93771
11.12	2.92093
11.13	2.92422
11.14	2.93376
11.15	2.94528
11.16	2.92685
11.17	2.93639
11.18	2.94001
11.19	2.92916
11.2	2.9183
11.21	2.93475
11.22	2.92916
11.23	2.93541
11.24	2.94429
11.25	2.94231
11.26	2.97126
11.27	2.9558
11.28	2.95087
11.29	2.92916
11.3	2.92685
11.31	2.92521
11.32	2.94396
11.33	2.9285
11.34	2.94133
11.35	2.9456
11.36	2.966
11.37	2.97093
11.38	2.99561
11.39	2.93146
11.4	2.9637
11.41	2.95679
11.42	2.95218
11.43	2.90876
11.44	2.93541
11.45	2.91501
11.46	2.9206
11.47	2.92883
11.48	2.95613
11.49	2.92587
11.5	2.95482
11.51	2.92225
11.52	2.97258
11.53	2.93245
11.54	2.90317
11.55	2.94659
11.56	2.95284
11.57	2.94659
11.58	2.93475
11.59	2.95054
11.6	2.92192
11.61	2.9183
11.62	2.94231
11.63	2.95021
11.64	2.91731
11.65	2.97653
11.66	2.95317
11.67	2.92883
11.68	2.93113
11.69	2.92356
11.7	2.92027
11.71	2.95876
11.72	2.95942
11.73	2.92817
11.74	2.92488
11.75	2.95383
11.76	2.95679
11.77	2.9558
11.78	2.94001
11.79	2.91337
11.8	2.9285
11.81	2.93277
11.82	2.94462
11.83	2.91501
11.84	2.92291
11.85	2.92883
11.86	2.95712
11.87	2.93409
11.88	2.9308
11.89	2.94593
11.9	2.94462
11.91	2.93212
11.92	2.96995
11.93	2.98376
11.94	2.95021
11.95	2.90745
11.96	2.88146
11.97	2.92554
11.98	2.93738
11.99	2.9262
12	2.90054
12.01	2.93146
12.02	2.91304
12.03	2.92916
12.04	2.93639
12.05	2.93245
12.06	2.9308
12.07	2.97093
12.08	2.95416
12.09	2.92685
12.1	2.92455
12.11	2.94626
12.12	2.92949
12.13	2.90975
12.14	2.95514
12.15	2.9456
12.16	2.9433
12.17	2.94429
12.18	2.93277
12.19	2.93113
12.2	2.94034
12.21	2.89922
12.22	2.92554
12.23	2.94297
12.24	2.94856
12.25	2.96863
12.26	2.93343
12.27	2.95021
12.28	2.94725
12.29	2.93047
12.3	2.90942
12.31	2.93442
12.32	2.94758
12.33	2.95482
12.34	2.94001
12.35	2.94166
12.36	2.98968
12.37	2.95416
12.38	2.94725
12.39	2.9387
12.4	2.92981
12.41	2.95054
12.42	2.95843
12.43	2.95876
12.44	2.97521
12.45	2.94067
12.46	2.94067
12.47	2.92949
12.48	2.93968
12.49	2.93771
12.5	2.94593
12.51	2.94199
12.52	2.93014
12.53	2.93639
12.54	2.93245
12.55	2.93903
12.56	2.93475
12.57	2.92883
12.58	2.93047
12.59	2.96041
12.6	2.97093
12.61	2.93738
12.62	2.92389
12.63	2.9387
12.64	2.90416
12.65	2.92883
12.66	2.95251
12.67	2.91073
12.68	2.96764
12.69	2.96205
12.7	2.95185
12.71	2.93903
12.72	2.93113
12.73	2.9558
12.74	2.9535
12.75	2.94988
12.76	2.92817
12.77	2.95514
12.78	2.9456
12.79	2.95646
12.8	2.89264
12.81	2.94034
12.82	2.93212
12.83	2.93705
12.84	2.95185
12.85	2.91073
12.86	2.94034
12.87	2.93212
12.88	2.94297
12.89	2.91731
12.9	2.9285
12.91	2.93376
12.92	2.91271
12.93	2.93179
12.94	2.93968
12.95	2.9456
12.96	2.94199
12.97	2.93968
12.98	2.91764
12.99	2.9206
13	2.92949
13.01	2.94034
13.02	2.90712
13.03	2.93409
13.04	2.93705
13.05	2.94396
13.06	2.92455
13.07	2.91863
13.08	2.94824
13.09	2.94495
13.1	2.91896
13.11	2.94264
13.12	2.90843
13.13	2.96074
13.14	2.94889
13.15	2.94133
13.16	2.92488
13.17	2.93639
13.18	2.91106
13.19	2.95317
13.2	2.92883
13.21	2.94495
13.22	2.94199
13.23	2.95646
13.24	2.92455
13.25	2.90876
13.26	2.91863
13.27	2.91797
13.28	2.91402
13.29	2.91041
13.3	2.92554
13.31	2.91041
13.32	2.92817
13.33	2.91304
13.34	2.92916
13.35	2.94824
13.36	2.92587
13.37	2.92916
13.38	2.9262
13.39	2.90843
13.4	2.92718
13.41	2.90416
13.42	2.91501
13.43	2.96732
13.44	2.93047
13.45	2.92685
13.46	2.9512
13.47	2.96732
13.48	2.95613
13.49	2.94034
13.5	2.90383
13.51	2.92587
13.52	2.89462
13.53	2.89001
13.54	2.93541
13.55	2.94725
13.56	2.92883
13.57	2.89758
13.58	2.9285
13.59	2.94791
13.6	2.94462
13.61	2.94166
13.62	2.93837
13.63	2.92883
13.64	2.91139
13.65	2.93837
13.66	2.91205
13.67	2.93606
13.68	2.93245
13.69	2.92225
13.7	2.95778
13.71	2.92159
13.72	2.92554
13.73	2.94889
13.74	2.93113
13.75	2.94001
