"BIO-KINE ASCII FILE"
"_COMMENT"	"MOS-500 Spectrometer"
"_COMMENT"	"Kinetics measurement"
"_COMMENT"	"Y Unit : Volt,  X Unit : s"
"_COMMENT"	"Excitation wavelength : 380 nm"
"_COMMENT"	"Fentes bandwidth =  1 nm"
"_COMMENT"	"HV= 1000V"
"_COMMENT"	"Timebase  1 =  .01 s   5001 pts"
"_SFM"	"SFM-400 /S  Advanced mode"
"_SFM"	"Ratio : S1: 2.5, S2: 0, S3: 0, S4: 1"
"_SFM"	"Content : S1: , S2: , S3: , S4:"
"_SFM"	"Concentration : S1: , S2: , S3: , S4:"
"_SFM"	"Total volume : 209 µl  Flow : 3.5 mL/s"
"_SFM"	"Acquisition start :  10 ms before stop"
"_SFM"	"cuve=FC-15, s1=10 ml , s2=10 ml , s3=10 ml , s4=1.9 ml"
"_UNITX"	"s"
"_UNITY"	"Volt"
"_DELTAX"	0
"_DATA"
1e-300	2.33999
0.01	2.39328
0.02	2.50118
0.03	2.48408
0.04	2.53671
0.05	2.5752
0.06	2.58342
0.07	2.62882
0.08	2.63605
0.09	2.65086
0.1	2.66138
0.11	2.62882
0.12	2.65546
0.13	2.64461
0.14	2.64132
0.15	2.66434
0.16	2.62191
0.17	2.64198
0.18	2.66467
0.19	2.70415
0.2	2.66434
0.21	2.63573
0.22	2.67388
0.23	2.66204
0.24	2.68671
0.25	2.71204
0.26	2.70185
0.27	2.69165
0.28	2.67717
0.29	2.66434
0.3	2.67652
0.31	2.69856
0.32	2.66336
0.33	2.69428
0.34	2.66402
0.35	2.69494
0.36	2.68902
0.37	2.69658
0.38	2.7127
0.39	2.6479
0.4	2.63803
0.41	2.64658
0.42	2.65283
0.43	2.66928
0.44	2.6831
0.45	2.66533
0.46	2.66007
0.47	2.68704
0.48	2.68046
0.49	2.70218
0.5	2.65678
0.51	2.65415
0.52	2.71862
0.53	2.68112
0.54	2.65842
0.55	2.67915
0.56	2.69987
0.57	2.7229
0.58	2.69362
0.59	2.67553
0.6	2.66402
0.61	2.68639
0.62	2.68342
0.63	2.67685
0.64	2.6775
0.65	2.68507
0.66	2.68704
0.67	2.66862
0.68	2.6775
0.69	2.65744
0.7	2.67191
0.71	2.67981
0.72	2.65152
0.73	2.62651
0.74	2.67553
0.75	2.67783
0.76	2.67125
0.77	2.68573
0.78	2.71073
0.79	2.70185
0.8	2.71435
0.81	2.68244
0.82	2.66533
0.83	2.6604
0.84	2.67388
0.85	2.66698
0.86	2.68639
0.87	2.67882
0.88	2.64855
0.89	2.67323
0.9	2.65513
0.91	2.65053
0.92	2.66895
0.93	2.67323
0.94	2.68013
0.95	2.65777
0.96	2.68244
0.97	2.66632
0.98	2.67981
0.99	2.67948
1	2.68013
1.01	2.68836
1.02	2.66763
1.03	2.65184
1.04	2.67356
1.05	2.66862
1.06	2.66434
1.07	2.70053
1.08	2.68967
1.09	2.66171
1.1	2.65579
1.11	2.65645
1.12	2.68178
1.13	2.67224
1.14	2.65908
1.15	2.65349
1.16	2.65777
1.17	2.70546
1.18	2.70382
1.19	2.69264
1.2	2.67388
1.21	2.6775
1.22	2.67388
1.23	2.66402
1.24	2.68342
1.25	2.69428
1.26	2.66138
1.27	2.65086
1.28	2.63474
1.29	2.65513
1.3	2.65974
1.31	2.64757
1.32	2.6729
1.33	2.64855
1.34	2.62948
1.35	2.63474
1.36	2.66994
1.37	2.69033
1.38	2.66434
1.39	2.65119
1.4	2.66895
1.41	2.68737
1.42	2.66961
1.43	2.65316
1.44	2.65546
1.45	2.65086
1.46	2.63934
1.47	2.63803
1.48	2.67717
1.49	2.66369
1.5	2.68046
1.51	2.67487
1.52	2.66533
1.53	2.64855
1.54	2.62619
1.55	2.65152
1.56	2.64592
1.57	2.64198
1.58	2.65152
1.59	2.66763
1.6	2.65941
1.61	2.65349
1.62	2.65481
1.63	2.67125
1.64	2.69395
1.65	2.69395
1.66	2.67454
1.67	2.65217
1.68	2.66303
1.69	2.65513
1.7	2.66895
1.71	2.64296
1.72	2.6377
1.73	2.6479
1.74	2.665
1.75	2.64921
1.76	2.65711
1.77	2.67388
1.78	2.66303
1.79	2.68869
1.8	2.68737
1.81	2.6752
1.82	2.6525
1.83	2.66007
1.84	2.67981
1.85	2.65448
1.86	2.64954
1.87	2.65645
1.88	2.67553
1.89	2.64395
1.9	2.66204
1.91	2.64066
1.92	2.67323
1.93	2.70086
1.94	2.62026
1.95	2.64033
1.96	2.6525
1.97	2.66204
1.98	2.65119
1.99	2.65842
2	2.66007
2.01	2.65842
2.02	2.62553
2.03	2.65349
2.04	2.6275
2.05	2.66895
2.06	2.65119
2.07	2.66369
2.08	2.64
2.09	2.62158
2.1	2.63309
2.11	2.64362
2.12	2.65875
2.13	2.66763
2.14	2.69757
2.15	2.67388
2.16	2.63013
2.17	2.64625
2.18	2.64099
2.19	2.64263
2.2	2.63112
2.21	2.65875
2.22	2.65711
2.23	2.63934
2.24	2.64494
2.25	2.66171
2.26	2.6354
2.27	2.64691
2.28	2.64954
2.29	2.63902
2.3	2.63737
2.31	2.6252
2.32	2.62388
2.33	2.65119
2.34	2.65119
2.35	2.64625
2.36	2.65579
2.37	2.64395
2.38	2.63276
2.39	2.63276
2.4	2.66007
2.41	2.67092
2.42	2.65316
2.43	2.65448
2.44	2.60678
2.45	2.65579
2.46	2.64691
2.47	2.69329
2.48	2.64461
2.49	2.63737
2.5	2.64461
2.51	2.63507
2.52	2.68178
2.53	2.66402
2.54	2.63704
2.55	2.62355
2.56	2.63145
2.57	2.60678
2.58	2.63408
2.59	2.65283
2.6	2.65711
2.61	2.63408
2.62	2.63408
2.63	2.67487
2.64	2.6525
2.65	2.62487
2.66	2.63967
2.67	2.6275
2.68	2.65777
2.69	2.64888
2.7	2.66895
2.71	2.63934
2.72	2.60546
2.73	2.6229
2.74	2.62717
2.75	2.62487
2.76	2.62421
2.77	2.61862
2.78	2.62553
2.79	2.63244
2.8	2.65711
2.81	2.63934
2.82	2.60974
2.83	2.64691
2.84	2.63737
2.85	2.6275
2.86	2.63276
2.87	2.63836
2.88	2.63013
2.89	2.64296
2.9	2.61566
2.91	2.62684
2.92	2.62092
2.93	2.63869
2.94	2.62092
2.95	2.64559
2.96	2.65283
2.97	2.62158
2.98	2.67158
2.99	2.66073
3	2.64559
3.01	2.64099
3.02	2.62026
3.03	2.66303
3.04	2.6275
3.05	2.63244
3.06	2.62816
3.07	2.63573
3.08	2.60513
3.09	2.62125
3.1	2.61632
3.11	2.63605
3.12	2.65579
3.13	2.62553
3.14	2.62816
3.15	2.63375
3.16	2.64263
3.17	2.63507
3.18	2.63276
3.19	2.63638
3.2	2.65711
3.21	2.63902
3.22	2.62684
3.23	2.63079
3.24	2.64263
3.25	2.64658
3.26	2.67257
3.27	2.63671
3.28	2.61303
3.29	2.61829
3.3	2.61401
3.31	2.63408
3.32	2.6354
3.33	2.66434
3.34	2.66467
3.35	2.6502
3.36	2.66007
3.37	2.64625
3.38	2.6127
3.39	2.61336
3.4	2.62948
3.41	2.69
3.42	2.63573
3.43	2.64527
3.44	2.62421
3.45	2.6275
3.46	2.6502
3.47	2.59362
3.48	2.6173
3.49	2.64099
3.5	2.63013
3.51	2.63276
3.52	2.61369
3.53	2.63211
3.54	2.65349
3.55	2.65777
3.56	2.63441
3.57	2.5979
3.58	2.64461
3.59	2.60086
3.6	2.63145
3.61	2.62553
3.62	2.61697
3.63	2.64033
3.64	2.63079
3.65	2.60151
3.66	2.60678
3.67	2.63474
3.68	2.63638
3.69	2.64527
3.7	2.63079
3.71	2.61467
3.72	2.62684
3.73	2.6127
3.74	2.61994
3.75	2.63967
3.76	2.61204
3.77	2.62684
3.78	2.61599
3.79	2.62454
3.8	2.63276
3.81	2.61862
3.82	2.63704
3.83	2.63967
3.84	2.6127
3.85	2.65481
3.86	2.61369
3.87	2.62092
3.88	2.64395
3.89	2.6275
3.9	2.61138
3.91	2.60053
3.92	2.62717
3.93	2.59559
3.94	2.62191
3.95	2.66204
3.96	2.64461
3.97	2.66007
3.98	2.64527
3.99	2.60283
4	2.61665
4.01	2.64592
4.02	2.6354
4.03	2.65152
4.04	2.63112
4.05	2.60283
4.06	2.58309
4.07	2.59921
4.08	2.60612
4.09	2.59855
4.1	2.62553
4.11	2.61829
4.12	2.60776
4.13	2.62355
4.14	2.62421
4.15	2.61961
4.16	2.64362
4.17	2.63276
4.18	2.63605
4.19	2.61138
4.2	2.64823
4.21	2.64527
4.22	2.6377
4.23	2.64428
4.24	2.62191
4.25	2.61533
4.26	2.61829
4.27	2.62092
4.28	2.63507
4.29	2.62026
4.3	2.62915
4.31	2.62454
4.32	2.64
4.33	2.63441
4.34	2.60612
4.35	2.64198
4.36	2.63638
4.37	2.59329
4.38	2.60941
4.39	2.65152
4.4	2.62355
4.41	2.62125
4.42	2.62224
4.43	2.61138
4.44	2.59987
4.45	2.63408
4.46	2.64033
4.47	2.59197
4.48	2.58342
4.49	2.58046
4.5	2.60546
4.51	2.60415
4.52	2.5877
4.53	2.60118
4.54	2.59296
4.55	2.62092
4.56	2.66303
4.57	2.65941
4.58	2.64329
4.59	2.61237
4.6	2.60086
4.61	2.63507
4.62	2.64033
4.63	2.64987
4.64	2.60349
4.65	2.62158
4.66	2.60447
4.67	2.6627
4.68	2.64329
4.69	2.64921
4.7	2.61599
4.71	2.60217
4.72	2.58868
4.73	2.58901
4.74	2.63013
4.75	2.66402
4.76	2.60217
4.77	2.61467
4.78	2.63474
4.79	2.59033
4.8	2.60316
4.81	2.60283
4.82	2.5923
4.83	2.59263
4.84	2.63112
4.85	2.64592
4.86	2.5923
4.87	2.60645
4.88	2.59757
4.89	2.59888
4.9	2.6104
4.91	2.59987
4.92	2.63079
4.93	2.62388
4.94	2.62092
4.95	2.60612
4.96	2.65152
4.97	2.63704
4.98	2.62717
4.99	2.60711
5	2.64198
5.01	2.60349
5.02	2.6127
5.03	2.66467
5.04	2.62224
5.05	2.63145
5.06	2.61434
5.07	2.59329
5.08	2.60842
5.09	2.60151
5.1	2.61072
5.11	2.59625
5.12	2.60053
5.13	2.5979
5.14	2.60908
5.15	2.65513
5.16	2.61007
5.17	2.59888
5.18	2.58375
5.19	2.60645
5.2	2.60513
5.21	2.63408
5.22	2.60612
5.23	2.61895
5.24	2.6298
5.25	2.60086
5.26	2.61829
5.27	2.5923
5.28	2.61303
5.29	2.62915
5.3	2.63112
5.31	2.63902
5.32	2.57684
5.33	2.59493
5.34	2.59132
5.35	2.60612
5.36	2.6298
5.37	2.63605
5.38	2.61994
5.39	2.59987
5.4	2.61336
5.41	2.60151
5.42	2.6104
5.43	2.60118
5.44	2.60744
5.45	2.61237
5.46	2.61566
5.47	2.62158
5.48	2.61763
5.49	2.62684
5.5	2.6127
5.51	2.55941
5.52	2.59592
5.53	2.59066
5.54	2.63605
5.55	2.62323
5.56	2.61632
5.57	2.63145
5.58	2.61171
5.59	2.61171
5.6	2.59592
5.61	2.63375
5.62	2.63902
5.63	2.59165
5.64	2.60579
5.65	2.6229
5.66	2.61533
5.67	2.59263
5.68	2.62224
5.69	2.60447
5.7	2.63244
5.71	2.6048
5.72	2.61599
5.73	2.63836
5.74	2.59822
5.75	2.64066
5.76	2.60612
5.77	2.59757
5.78	2.62783
5.79	2.62553
5.8	2.61632
5.81	2.62323
5.82	2.59493
5.83	2.59954
5.84	2.58178
5.85	2.62816
5.86	2.6127
5.87	2.57092
5.88	2.6048
5.89	2.57618
5.9	2.59625
5.91	2.60908
5.92	2.6002
5.93	2.61697
5.94	2.59888
5.95	2.61632
5.96	2.61204
5.97	2.61401
5.98	2.65086
5.99	2.65974
6	2.63605
6.01	2.62224
6.02	2.60776
6.03	2.62651
6.04	2.60546
6.05	2.58967
6.06	2.61007
6.07	2.61401
6.08	2.59526
6.09	2.57289
6.1	2.6002
6.11	2.61171
6.12	2.6173
6.13	2.60546
6.14	2.60546
6.15	2.58934
6.16	2.61467
6.17	2.57816
6.18	2.61105
6.19	2.59493
6.2	2.6002
6.21	2.59165
6.22	2.57947
6.23	2.59987
6.24	2.60711
6.25	2.6354
6.26	2.58375
6.27	2.56434
6.28	2.59395
6.29	2.60053
6.3	2.57717
6.31	2.58441
6.32	2.62125
6.33	2.59033
6.34	2.60118
6.35	2.61467
6.36	2.58671
6.37	2.61072
6.38	2.61895
6.39	2.62619
6.4	2.59822
6.41	2.61928
6.42	2.6002
6.43	2.62388
6.44	2.59329
6.45	2.59954
6.46	2.61796
6.47	2.62783
6.48	2.58178
6.49	2.60217
6.5	2.58013
6.51	2.57914
6.52	2.56928
6.53	2.62849
6.54	2.62092
6.55	2.59658
6.56	2.61303
6.57	2.61303
6.58	2.61204
6.59	2.59493
6.6	2.57026
6.61	2.56862
6.62	2.64724
6.63	2.62553
6.64	2.54888
6.65	2.60941
6.66	2.61763
6.67	2.58474
6.68	2.60513
6.69	2.62388
6.7	2.60151
6.71	2.61072
6.72	2.61566
6.73	2.59165
6.74	2.59625
6.75	2.60382
6.76	2.61171
6.77	2.60809
6.78	2.59822
6.79	2.63408
6.8	2.62849
6.81	2.59855
6.82	2.59
6.83	2.59428
6.84	2.58803
6.85	2.59395
6.86	2.60612
6.87	2.62586
6.88	2.61994
6.89	2.61697
6.9	2.6048
6.91	2.59888
6.92	2.63408
6.93	2.59362
6.94	2.58901
6.95	2.59559
6.96	2.60842
6.97	2.60086
6.98	2.58112
6.99	2.61796
7	2.62125
7.01	2.6127
7.02	2.61994
7.03	2.5877
7.04	2.56039
7.05	2.58309
7.06	2.58638
7.07	2.565
7.08	2.59
7.09	2.60151
7.1	2.62092
7.11	2.58178
7.12	2.59362
7.13	2.60908
7.14	2.58539
7.15	2.59395
7.16	2.58605
7.17	2.59362
7.18	2.59757
7.19	2.59559
7.2	2.61961
7.21	2.6173
7.22	2.6048
7.23	2.59559
7.24	2.58967
7.25	2.59066
7.26	2.59724
7.27	2.58605
7.28	2.62092
7.29	2.59592
7.3	2.57914
7.31	2.55809
7.32	2.59888
7.33	2.62158
7.34	2.58868
7.35	2.62619
7.36	2.62323
7.37	2.62224
7.38	2.59987
7.39	2.59263
7.4	2.57487
7.41	2.5696
7.42	2.56928
7.43	2.59329
7.44	2.60612
7.45	2.6048
7.46	2.59559
7.47	2.59987
7.48	2.57289
7.49	2.59066
7.5	2.59099
7.51	2.59658
7.52	2.59197
7.53	2.58507
7.54	2.58375
7.55	2.61336
7.56	2.61434
7.57	2.63704
7.58	2.57684
7.59	2.56829
7.6	2.62915
7.61	2.58934
7.62	2.58474
7.63	2.6025
7.64	2.59428
7.65	2.5923
7.66	2.58013
7.67	2.55908
7.68	2.6104
7.69	2.57257
7.7	2.59592
7.71	2.62487
7.72	2.60744
7.73	2.6252
7.74	2.60217
7.75	2.56697
7.76	2.56007
7.77	2.61632
7.78	2.59526
7.79	2.56829
7.8	2.55908
7.81	2.57125
7.82	2.57026
7.83	2.57257
7.84	2.56039
7.85	2.59691
7.86	2.57289
7.87	2.58441
7.88	2.60842
7.89	2.58178
7.9	2.59362
7.91	2.58112
7.92	2.60053
7.93	2.60546
7.94	2.63474
7.95	2.57257
7.96	2.58901
7.97	2.59724
7.98	2.60151
7.99	2.59724
8	2.59066
8.01	2.60645
8.02	2.59592
8.03	2.61204
8.04	2.55908
8.05	2.59954
8.06	2.58309
8.07	2.57322
8.08	2.6002
8.09	2.59165
8.1	2.59099
8.11	2.57454
8.12	2.57849
8.13	2.615
8.14	2.59855
8.15	2.59
8.16	2.56796
8.17	2.54756
8.18	2.60184
8.19	2.60447
8.2	2.60283
8.21	2.61072
8.22	2.59362
8.23	2.59625
8.24	2.57092
8.25	2.61369
8.26	2.63013
8.27	2.59921
8.28	2.58474
8.29	2.55842
8.3	2.55184
8.31	2.57914
8.32	2.55447
8.33	2.57586
8.34	2.59066
8.35	2.59921
8.36	2.60415
8.37	2.57618
8.38	2.58868
8.39	2.5775
8.4	2.60513
8.41	2.60678
8.42	2.60053
8.43	2.57487
8.44	2.58507
8.45	2.60711
8.46	2.57816
8.47	2.5775
8.48	2.58046
8.49	2.59
8.5	2.6025
8.51	2.56566
8.52	2.57125
8.53	2.61434
8.54	2.60612
8.55	2.58507
8.56	2.57092
8.57	2.57224
8.58	2.59132
8.59	2.59559
8.6	2.58638
8.61	2.60678
8.62	2.56763
8.63	2.59033
8.64	2.60118
8.65	2.59066
8.66	2.5979
8.67	2.61829
8.68	2.6229
8.69	2.58901
8.7	2.54987
8.71	2.57586
8.72	2.59263
8.73	2.60217
8.74	2.60546
8.75	2.58605
8.76	2.57191
8.77	2.57586
8.78	2.60546
8.79	2.59197
8.8	2.59197
8.81	2.62849
8.82	2.60447
8.83	2.61928
8.84	2.60151
8.85	2.59493
8.86	2.58934
8.87	2.57388
8.88	2.58309
8.89	2.60974
8.9	2.58474
8.91	2.57783
8.92	2.58737
8.93	2.58868
8.94	2.55381
8.95	2.58836
8.96	2.59888
8.97	2.60579
8.98	2.57783
8.99	2.60941
9	2.5775
9.01	2.54921
9.02	2.61237
9.03	2.57783
9.04	2.58507
9.05	2.58803
9.06	2.59954
9.07	2.58803
9.08	2.59691
9.09	2.59954
9.1	2.59822
9.11	2.59724
9.12	2.6002
9.13	2.62125
9.14	2.58342
9.15	2.62355
9.16	2.60546
9.17	2.60941
9.18	2.61336
9.19	2.59822
9.2	2.60908
9.21	2.60118
9.22	2.58671
9.23	2.58342
9.24	2.5877
9.25	2.58474
9.26	2.59296
9.27	2.59329
9.28	2.60217
9.29	2.57421
9.3	2.5627
9.31	2.56829
9.32	2.56533
9.33	2.57355
9.34	2.59099
9.35	2.60678
9.36	2.59132
9.37	2.56566
9.38	2.58836
9.39	2.61336
9.4	2.56632
9.41	2.56335
9.42	2.57684
9.43	2.59033
9.44	2.56434
9.45	2.56335
9.46	2.60415
9.47	2.59362
9.48	2.58276
9.49	2.60382
9.5	2.58803
9.51	2.58704
9.52	2.61138
9.53	2.60151
9.54	2.56533
9.55	2.57454
9.56	2.59559
9.57	2.60349
9.58	2.5571
9.59	2.59165
9.6	2.5798
9.61	2.57355
9.62	2.59197
9.63	2.61105
9.64	2.56533
9.65	2.57618
9.66	2.59691
9.67	2.59197
9.68	2.57355
9.69	2.56599
9.7	2.59691
9.71	2.59296
9.72	2.57487
9.73	2.58474
9.74	2.58803
9.75	2.57092
9.76	2.58342
9.77	2.58605
9.78	2.57191
9.79	2.56796
9.8	2.58539
9.81	2.56895
9.82	2.57125
9.83	2.57289
9.84	2.59066
9.85	2.58013
9.86	2.57092
9.87	2.58276
9.88	2.58046
9.89	2.59
9.9	2.58046
9.91	2.60645
9.92	2.5798
9.93	2.57224
9.94	2.56138
9.95	2.58145
9.96	2.60612
9.97	2.59033
9.98	2.61138
9.99	2.60579
10	2.58145
10.01	2.56829
10.02	2.55645
10.03	2.53474
10.04	2.5446
10.05	2.57553
10.06	2.5798
10.07	2.60053
10.08	2.60776
10.09	2.58539
10.1	2.60086
10.11	2.56895
10.12	2.59625
10.13	2.5696
10.14	2.57026
10.15	2.58342
10.16	2.54921
10.17	2.55776
10.18	2.60842
10.19	2.57947
10.2	2.57224
10.21	2.5775
10.22	2.58934
10.23	2.57454
10.24	2.58539
10.25	2.55381
10.26	2.55349
10.27	2.57158
10.28	2.57059
10.29	2.55085
10.3	2.58211
10.31	2.57191
10.32	2.56072
10.33	2.57454
10.34	2.58342
10.35	2.58572
10.36	2.56335
10.37	2.55645
10.38	2.61336
10.39	2.58737
10.4	2.55842
10.41	2.59263
10.42	2.57158
10.43	2.58967
10.44	2.58474
10.45	2.59263
10.46	2.58145
10.47	2.5775
10.48	2.56796
10.49	2.55842
10.5	2.58342
10.51	2.58276
10.52	2.58671
10.53	2.58572
10.54	2.58868
10.55	2.56533
10.56	2.56138
10.57	2.58671
10.58	2.58276
10.59	2.59526
10.6	2.61336
10.61	2.61204
10.62	2.60842
10.63	2.54855
10.64	2.57224
10.65	2.59724
10.66	2.56368
10.67	2.57257
10.68	2.59165
10.69	2.58112
10.7	2.58507
10.71	2.55217
10.72	2.55579
10.73	2.58737
10.74	2.59526
10.75	2.56697
10.76	2.59066
10.77	2.58704
10.78	2.56007
10.79	2.58474
10.8	2.62125
10.81	2.60415
10.82	2.59099
10.83	2.58112
10.84	2.58934
10.85	2.57783
10.86	2.59066
10.87	2.5696
10.88	2.59395
10.89	2.57849
10.9	2.58441
10.91	2.57849
10.92	2.5696
10.93	2.57026
10.94	2.57224
10.95	2.61632
10.96	2.55678
10.97	2.53967
10.98	2.54954
10.99	2.57783
11	2.54921
11.01	2.57586
11.02	2.61928
11.03	2.59888
11.04	2.61369
11.05	2.57816
11.06	2.56368
11.07	2.55381
11.08	2.58243
11.09	2.5627
11.1	2.59724
11.11	2.56796
11.12	2.57717
11.13	2.58211
11.14	2.58507
11.15	2.60908
11.16	2.61763
11.17	2.58145
11.18	2.57421
11.19	2.59526
11.2	2.59822
11.21	2.57092
11.22	2.55941
11.23	2.55151
11.24	2.55579
11.25	2.56007
11.26	2.56566
11.27	2.58408
11.28	2.61303
11.29	2.53079
11.3	2.54724
11.31	2.58572
11.32	2.6173
11.33	2.56829
11.34	2.56632
11.35	2.56039
11.36	2.58572
11.37	2.58408
11.38	2.56138
11.39	2.59526
11.4	2.6025
11.41	2.57454
11.42	2.57487
11.43	2.54263
11.44	2.57684
11.45	2.58934
11.46	2.57849
11.47	2.5571
11.48	2.59066
11.49	2.55447
11.5	2.54987
11.51	2.56072
11.52	2.55381
11.53	2.57289
11.54	2.56632
11.55	2.60316
11.56	2.57092
11.57	2.58671
11.58	2.58671
11.59	2.61467
11.6	2.59691
11.61	2.56007
11.62	2.59625
11.63	2.58737
11.64	2.62684
11.65	2.59263
11.66	2.59954
11.67	2.58046
11.68	2.56599
11.69	2.56763
11.7	2.54724
11.71	2.56533
11.72	2.57059
11.73	2.58342
11.74	2.56007
11.75	2.55743
11.76	2.60447
11.77	2.56303
11.78	2.56829
11.79	2.57289
11.8	2.56335
11.81	2.57618
11.82	2.59625
11.83	2.56796
11.84	2.57553
11.85	2.55316
11.86	2.58342
11.87	2.57092
11.88	2.60053
11.89	2.58967
11.9	2.56171
11.91	2.57882
11.92	2.57783
11.93	2.57487
11.94	2.56303
11.95	2.5673
11.96	2.58671
11.97	2.56862
11.98	2.58539
11.99	2.57092
12	2.5798
12.01	2.61928
12.02	2.59592
12.03	2.56632
12.04	2.57947
12.05	2.5752
12.06	2.57092
12.07	2.57257
12.08	2.5627
12.09	2.60513
12.1	2.58638
12.11	2.54756
12.12	2.5548
12.13	2.55941
12.14	2.54789
12.15	2.56039
12.16	2.56434
12.17	2.58967
12.18	2.59362
12.19	2.58046
12.2	2.60184
12.21	2.55941
12.22	2.60382
12.23	2.59888
12.24	2.56105
12.25	2.56632
12.26	2.55283
12.27	2.55875
12.28	2.55842
12.29	2.54954
12.3	2.56303
12.31	2.58605
12.32	2.57059
12.33	2.56796
12.34	2.5673
12.35	2.57026
12.36	2.57553
12.37	2.57224
12.38	2.56105
12.39	2.55283
12.4	2.57849
12.41	2.5775
12.42	2.5673
12.43	2.57651
12.44	2.54592
12.45	2.54329
12.46	2.56566
12.47	2.58342
12.48	2.58375
12.49	2.58572
12.5	2.56599
12.51	2.56072
12.52	2.56237
12.53	2.5775
12.54	2.57487
12.55	2.56467
12.56	2.54592
12.57	2.57289
12.58	2.57257
12.59	2.59132
12.6	2.56533
12.61	2.54428
12.62	2.57224
12.63	2.57816
12.64	2.56204
12.65	2.5752
12.66	2.58507
12.67	2.55184
12.68	2.56599
12.69	2.57816
12.7	2.6104
12.71	2.5798
12.72	2.5525
12.73	2.5423
12.74	2.56401
12.75	2.55546
12.76	2.57026
12.77	2.56204
12.78	2.56171
12.79	2.53375
12.8	2.54197
12.81	2.55447
12.82	2.5775
12.83	2.58211
12.84	2.5525
12.85	2.59296
12.86	2.58803
12.87	2.58408
12.88	2.52585
12.89	2.55842
12.9	2.58178
12.91	2.61533
12.92	2.60053
12.93	2.59
12.94	2.54033
12.95	2.57388
12.96	2.5752
12.97	2.55118
12.98	2.57618
12.99	2.55053
13	2.57487
13.01	2.59724
13.02	2.59691
13.03	2.59
13.04	2.56763
13.05	2.56467
13.06	2.54
13.07	2.54822
13.08	2.56533
13.09	2.5752
13.1	2.59526
13.11	2.55447
13.12	2.58211
13.13	2.58441
13.14	2.57454
13.15	2.55645
13.16	2.56434
13.17	2.59395
13.18	2.58671
13.19	2.52849
13.2	2.55875
13.21	2.57454
13.22	2.56204
13.23	2.54197
13.24	2.55349
13.25	2.59855
13.26	2.5696
13.27	2.57947
13.28	2.5548
13.29	2.58342
13.3	2.55053
13.31	2.57224
13.32	2.56204
13.33	2.59165
13.34	2.57092
13.35	2.55414
13.36	2.58178
13.37	2.57257
13.38	2.54954
13.39	2.58243
13.4	2.58836
13.41	2.56467
13.42	2.57454
13.43	2.56072
13.44	2.54164
13.45	2.54197
13.46	2.55053
13.47	2.56401
13.48	2.56335
13.49	2.58178
13.5	2.57355
13.51	2.58276
13.52	2.58441
13.53	2.54855
13.54	2.58638
13.55	2.57914
13.56	2.54756
13.57	2.55053
13.58	2.55908
13.59	2.52881
13.6	2.55546
13.61	2.58243
13.62	2.56862
13.63	2.59066
13.64	2.58967
13.65	2.56632
13.66	2.55381
13.67	2.53934
13.68	2.55349
13.69	2.54263
13.7	2.57849
13.71	2.57586
13.72	2.55546
13.73	2.57914
13.74	2.54131
