"BIO-KINE ASCII FILE"
"_COMMENT"	"MOS-500 Spectrometer"
"_COMMENT"	"Kinetics measurement"
"_COMMENT"	"Y Unit : Volt,  X Unit : s"
"_COMMENT"	"Excitation wavelength : 380 nm"
"_COMMENT"	"Fentes bandwidth =  1 nm"
"_COMMENT"	"HV= 1000V"
"_COMMENT"	"Timebase  1 =  .01 s   5001 pts"
"_SFM"	"SFM-400 /S  Advanced mode"
"_SFM"	"Ratio : S1: 2.5, S2: 0, S3: 0, S4: 1"
"_SFM"	"Content : S1: , S2: , S3: , S4:"
"_SFM"	"Concentration : S1: , S2: , S3: , S4:"
"_SFM"	"Total volume : 209 µl  Flow : 3.5 mL/s"
"_SFM"	"Acquisition start :  10 ms before stop"
"_SFM"	"cuve=FC-15, s1=10 ml , s2=10 ml , s3=10 ml , s4=1.9 ml"
"_UNITX"	"s"
"_UNITY"	"Volt"
"_DELTAX"	0
"_DATA"
1e-300	8.2349
0.01	8.47142
0.02	8.62241
0.03	8.77439
0.04	8.88557
0.05	8.98327
0.06	8.94018
0.07	8.9484
0.08	9.00268
0.09	9.00071
0.1	8.98294
0.11	9.00498
0.12	9.04742
0.13	8.99281
0.14	8.99051
0.15	9.04643
0.16	9.03492
0.17	9.01025
0.18	9.01781
0.19	9.07571
0.2	9.05334
0.21	8.99446
0.22	8.99018
0.23	8.98755
0.24	9.03426
0.25	9.00531
0.26	8.95433
0.27	8.99972
0.28	9.00762
0.29	8.97834
0.3	9.0211
0.31	9.01781
0.32	8.99906
0.33	8.95827
0.34	9.00137
0.35	9.0086
0.36	8.98656
0.37	9.00433
0.38	8.98492
0.39	9.00466
0.4	9.00038
0.41	8.98097
0.42	8.98262
0.43	8.97373
0.44	8.94511
0.45	8.99413
0.46	8.99577
0.47	8.97077
0.48	9.04018
0.49	9.01123
0.5	8.99413
0.51	8.96058
0.52	8.979
0.53	8.97735
0.54	8.97505
0.55	8.88985
0.56	8.92472
0.57	8.96058
0.58	8.9313
0.59	8.97966
0.6	8.91222
0.61	8.90597
0.62	8.85531
0.63	8.87735
0.64	8.88228
0.65	8.90729
0.66	8.9109
0.67	8.87636
0.68	8.90498
0.69	8.93985
0.7	8.91682
0.71	8.87801
0.72	8.83163
0.73	8.85202
0.74	8.86781
0.75	8.85268
0.76	8.87472
0.77	8.86748
0.78	8.80827
0.79	8.84939
0.8	8.83985
0.81	8.91386
0.82	8.87867
0.83	8.85597
0.84	8.87768
0.85	8.79412
0.86	8.76551
0.87	8.77537
0.88	8.81584
0.89	8.82801
0.9	8.75465
0.91	8.78459
0.92	8.77143
0.93	8.80498
0.94	8.7836
0.95	8.74445
0.96	8.77801
0.97	8.75827
0.98	8.77899
0.99	8.79116
1	8.77176
1.01	8.72833
1.02	8.74445
1.03	8.79347
1.04	8.7586
1.05	8.72998
1.06	8.7359
1.07	8.70268
1.08	8.79544
1.09	8.74412
1.1	8.69445
1.11	8.7359
1.12	8.71518
1.13	8.68623
1.14	8.67406
1.15	8.68064
1.16	8.70432
1.17	8.72406
1.18	8.70037
1.19	8.69511
1.2	8.70531
1.21	8.72143
1.22	8.68557
1.23	8.66748
1.24	8.66123
1.25	8.63228
1.26	8.60827
1.27	8.61616
1.28	8.63425
1.29	8.64116
1.3	8.62669
1.31	8.68787
1.32	8.64906
1.33	8.61616
1.34	8.63985
1.35	8.66024
1.36	8.61682
1.37	8.62471
1.38	8.6382
1.39	8.66616
1.4	8.59445
1.41	8.57636
1.42	8.62471
1.43	8.61682
1.44	8.61846
1.45	8.60892
1.46	8.56386
1.47	8.56813
1.48	8.67142
1.49	8.66814
1.5	8.63919
1.51	8.57932
1.52	8.59511
1.53	8.53524
1.54	8.58129
1.55	8.6507
1.56	8.61419
1.57	8.58952
1.58	8.55859
1.59	8.64346
1.6	8.56715
1.61	8.52899
1.62	8.57636
1.63	8.57669
1.64	8.58655
1.65	8.56155
1.66	8.54149
1.67	8.5382
1.68	8.54445
1.69	8.48557
1.7	8.54412
1.71	8.528
1.72	8.55563
1.73	8.48951
1.74	8.51912
1.75	8.52274
1.76	8.45497
1.77	8.48392
1.78	8.49083
1.79	8.48162
1.8	8.48425
1.81	8.50432
1.82	8.47175
1.83	8.45793
1.84	8.52274
1.85	8.46385
1.86	8.43918
1.87	8.48129
1.88	8.44247
1.89	8.41418
1.9	8.47274
1.91	8.49708
1.92	8.48984
1.93	8.49478
1.94	8.40629
1.95	8.44905
1.96	8.43721
1.97	8.41155
1.98	8.36287
1.99	8.37997
2	8.48425
2.01	8.38918
2.02	8.36418
2.03	8.39477
2.04	8.40333
2.05	8.38129
2.06	8.34214
2.07	8.38359
2.08	8.38425
2.09	8.38194
2.1	8.378
2.11	8.40497
2.12	8.40168
2.13	8.37602
2.14	8.38556
2.15	8.3882
2.16	8.38918
2.17	8.39806
2.18	8.37339
2.19	8.3326
2.2	8.31747
2.21	8.32865
2.22	8.27076
2.23	8.32602
2.24	8.27569
2.25	8.32438
2.26	8.33096
2.27	8.31286
2.28	8.28425
2.29	8.31155
2.3	8.31056
2.31	8.27503
2.32	8.31813
2.33	8.31879
2.34	8.28589
2.35	8.3099
2.36	8.27175
2.37	8.25596
2.38	8.29806
2.39	8.2974
2.4	8.25069
2.41	8.27865
2.42	8.31089
2.43	8.2553
2.44	8.28227
2.45	8.25563
2.46	8.27635
2.47	8.22964
2.48	8.24082
2.49	8.26352
2.5	8.28326
2.51	8.23951
2.52	8.20694
2.53	8.22997
2.54	8.21451
2.55	8.24313
2.56	8.25102
2.57	8.29214
2.58	8.22076
2.59	8.26221
2.6	8.20957
2.61	8.19082
2.62	8.2576
2.63	8.20365
2.64	8.1974
2.65	8.11911
2.66	8.20332
2.67	8.19707
2.68	8.12437
2.69	8.14181
2.7	8.14049
2.71	8.18786
2.72	8.16549
2.73	8.08687
2.74	8.16648
2.75	8.14839
2.76	8.12766
2.77	8.15562
2.78	8.19806
2.79	8.18359
2.8	8.13095
2.81	8.13819
2.82	8.13589
2.83	8.13523
2.84	8.04904
2.85	8.1122
2.86	8.13227
2.87	8.15924
2.88	8.11516
2.89	8.07536
2.9	8.10266
2.91	8.10628
2.92	8.11187
2.93	8.16648
2.94	8.10661
2.95	8.13589
2.96	8.04773
2.97	8.08852
2.98	8.05529
2.99	8.07996
3	8.11385
3.01	8.08852
3.02	8.1599
3.03	8.12437
3.04	8.05332
3.05	8.05365
3.06	8.07667
3.07	8.1576
3.08	8.11977
3.09	8.07635
3.1	8.13983
3.11	8.07832
3.12	8.05003
3.13	8.05463
3.14	8.10595
3.15	8.05463
3.16	8.0474
3.17	8.05167
3.18	8.04082
3.19	8.01253
3.2	8.02569
3.21	8.052
3.22	8.04345
3.23	8.02338
3.24	8.05003
3.25	8.05661
3.26	7.98457
3.27	7.99279
3.28	8.02075
3.29	7.98029
3.3	8.03588
3.31	7.98095
3.32	7.97799
3.33	7.9793
3.34	7.95694
3.35	7.98819
3.36	8.01055
3.37	8.02371
3.38	8.0099
3.39	7.98358
3.4	7.93292
3.41	7.97075
3.42	8.00858
3.43	7.95924
3.44	7.9849
3.45	7.96121
3.46	7.97634
3.47	8.00924
3.48	8.03062
3.49	7.98523
3.5	7.93193
3.51	7.95628
3.52	7.93259
3.53	7.91582
3.54	7.91911
3.55	7.95134
3.56	7.91845
3.57	7.9543
3.58	7.9349
3.59	7.96055
3.6	7.9145
3.61	7.97207
3.62	7.92141
3.63	7.88917
3.64	7.91187
3.65	7.9247
3.66	7.9418
3.67	7.9793
3.68	7.94411
3.69	7.90463
3.7	7.91351
3.71	7.92996
3.72	7.92536
3.73	7.89082
3.74	7.902
3.75	7.87305
3.76	7.87733
3.77	7.84674
3.78	7.82864
3.79	7.83785
3.8	7.86943
3.81	7.90397
3.82	7.86318
3.83	7.87206
3.84	7.85562
3.85	7.87503
3.86	7.85002
3.87	7.78292
3.88	7.8497
3.89	7.85627
3.9	7.85792
3.91	7.86878
3.92	7.84279
3.93	7.83193
3.94	7.80858
3.95	7.85068
3.96	7.81877
3.97	7.83884
3.98	7.8441
3.99	7.79772
4	7.802
4.01	7.86647
4.02	7.85956
4.03	7.83752
4.04	7.82141
4.05	7.81022
4.06	7.84246
4.07	7.7816
4.08	7.79904
4.09	7.78555
4.1	7.82996
4.11	7.82766
4.12	7.7793
4.13	7.77305
4.14	7.81614
4.15	7.76779
4.16	7.74936
4.17	7.78325
4.18	7.79838
4.19	7.74344
4.2	7.75002
4.21	7.78094
4.22	7.79312
4.23	7.81548
4.24	7.76515
4.25	7.76746
4.26	7.73127
4.27	7.73917
4.28	7.76943
4.29	7.74048
4.3	7.72371
4.31	7.75331
4.32	7.72831
4.33	7.73292
4.34	7.71844
4.35	7.73588
4.36	7.73259
4.37	7.69377
4.38	7.68061
4.39	7.70232
4.4	7.70101
4.41	7.71877
4.42	7.69706
4.43	7.72732
4.44	7.73522
4.45	7.7543
4.46	7.7589
4.47	7.73357
4.48	7.72107
4.49	7.72403
4.5	7.67239
4.51	7.74904
4.52	7.67469
4.53	7.66877
4.54	7.67634
4.55	7.70956
4.56	7.71351
4.57	7.70068
4.58	7.69542
4.59	7.69871
4.6	7.68423
4.61	7.63259
4.62	7.60561
4.63	7.66614
4.64	7.67436
4.65	7.68423
4.66	7.65463
4.67	7.67963
4.68	7.69114
4.69	7.64903
4.7	7.66943
4.71	7.66614
4.72	7.62008
4.73	7.66219
4.74	7.64838
4.75	7.65956
4.76	7.63851
4.77	7.6543
4.78	7.62107
4.79	7.60824
4.8	7.55627
4.81	7.62403
4.82	7.6293
4.83	7.64311
4.84	7.59048
4.85	7.57008
4.86	7.65002
4.87	7.66022
4.88	7.68785
4.89	7.64903
4.9	7.62403
4.91	7.62403
4.92	7.59114
4.93	7.5316
4.94	7.54344
4.95	7.55989
4.96	7.57502
4.97	7.54015
4.98	7.59541
4.99	7.60364
5	7.62633
5.01	7.63982
5.02	7.56285
5.03	7.58291
5.04	7.65068
5.05	7.57436
5.06	7.57765
5.07	7.54771
5.08	7.59443
5.09	7.55627
5.1	7.53028
5.11	7.60824
5.12	7.60594
5.13	7.58752
5.14	7.58851
5.15	7.54212
5.16	7.6089
5.17	7.63193
5.18	7.60495
5.19	7.53489
5.2	7.54245
5.21	7.57107
5.22	7.58127
5.23	7.58094
5.24	7.55495
5.25	7.58127
5.26	7.56482
5.27	7.54443
5.28	7.57239
5.29	7.56219
5.3	7.5214
5.31	7.55199
5.32	7.52535
5.33	7.59147
5.34	7.51942
5.35	7.56219
5.36	7.56054
5.37	7.52995
5.38	7.50495
5.39	7.46646
5.4	7.51646
5.41	7.51252
5.42	7.52995
5.43	7.54739
5.44	7.54804
5.45	7.48258
5.46	7.46416
5.47	7.45166
5.48	7.47469
5.49	7.53489
5.5	7.47403
5.51	7.4839
5.52	7.4612
5.53	7.47929
5.54	7.51153
5.55	7.49837
5.56	7.39936
5.57	7.46252
5.58	7.49081
5.59	7.48752
5.6	7.49278
5.61	7.46712
5.62	7.44442
5.63	7.44376
5.64	7.47765
5.65	7.48061
5.66	7.4635
5.67	7.49475
5.68	7.42172
5.69	7.45528
5.7	7.47469
5.71	7.4635
5.72	7.37337
5.73	7.39936
5.74	7.45462
5.75	7.4885
5.76	7.40133
5.77	7.46284
5.78	7.47469
5.79	7.45758
5.8	7.38389
5.81	7.42041
5.82	7.40988
5.83	7.40725
5.84	7.41449
5.85	7.41876
5.86	7.37271
5.87	7.41811
5.88	7.42501
5.89	7.42205
5.9	7.3658
5.91	7.40396
5.92	7.39738
5.93	7.40988
5.94	7.44705
5.95	7.40857
5.96	7.36712
5.97	7.37403
5.98	7.41811
5.99	7.40297
6	7.36383
6.01	7.36909
6.02	7.40001
6.03	7.33027
6.04	7.37995
6.05	7.376
6.06	7.37962
6.07	7.37403
6.08	7.39738
6.09	7.41218
6.1	7.38324
6.11	7.40725
6.12	7.3964
6.13	7.37205
6.14	7.36942
6.15	7.37304
6.16	7.36909
6.17	7.3908
6.18	7.39409
6.19	7.40166
6.2	7.32139
6.21	7.34804
6.22	7.326
6.23	7.36876
6.24	7.32501
6.25	7.29475
6.26	7.40593
6.27	7.35495
6.28	7.31317
6.29	7.37468
6.3	7.33258
6.31	7.32731
6.32	7.28323
6.33	7.3056
6.34	7.34672
6.35	7.3306
6.36	7.34014
6.37	7.31021
6.38	7.30659
6.39	7.33751
6.4	7.34837
6.41	7.32139
6.42	7.3158
6.43	7.30922
6.44	7.33291
6.45	7.29442
6.46	7.31547
6.47	7.30297
6.48	7.26744
6.49	7.33554
6.5	7.36778
6.51	7.3181
6.52	7.29935
6.53	7.31712
6.54	7.251
6.55	7.26646
6.56	7.28159
6.57	7.29047
6.58	7.28587
6.59	7.27304
6.6	7.29606
6.61	7.31975
6.62	7.29277
6.63	7.2931
6.64	7.30823
6.65	7.30791
6.66	7.22731
6.67	7.29475
6.68	7.2658
6.69	7.30692
6.7	7.29179
6.71	7.25988
6.72	7.29179
6.73	7.2158
6.74	7.28718
6.75	7.25593
6.76	7.23389
6.77	7.22534
6.78	7.31185
6.79	7.31317
6.8	7.27731
6.81	7.2181
6.82	7.18455
6.83	7.24475
6.84	7.22205
6.85	7.19968
6.86	7.25231
6.87	7.22534
6.88	7.22534
6.89	7.22764
6.9	7.25133
6.91	7.2783
6.92	7.24146
6.93	7.23389
6.94	7.20823
6.95	7.23323
6.96	7.20461
6.97	7.26054
6.98	7.2635
6.99	7.24113
7	7.19014
7.01	7.20889
7.02	7.25067
7.03	7.2556
7.04	7.21251
7.05	7.24573
7.06	7.19343
7.07	7.18948
7.08	7.23652
7.09	7.20428
7.1	7.20428
7.11	7.20593
7.12	7.17994
7.13	7.20889
7.14	7.23685
7.15	7.23948
7.16	7.1829
7.17	7.14178
7.18	7.18027
7.19	7.19738
7.2	7.24244
7.21	7.24705
7.22	7.21613
7.23	7.17501
7.24	7.18224
7.25	7.17139
7.26	7.17402
7.27	7.20527
7.28	7.20527
7.29	7.15132
7.3	7.21942
7.31	7.16251
7.32	7.1408
7.33	7.16481
7.34	7.20955
7.35	7.21777
7.36	7.17501
7.37	7.14244
7.38	7.19507
7.39	7.21876
7.4	7.15692
7.41	7.15231
7.42	7.14573
7.43	7.17435
7.44	7.19738
7.45	7.24968
7.46	7.18488
7.47	7.19047
7.48	7.17928
7.49	7.20725
7.5	7.10626
7.51	7.19047
7.52	7.16744
7.53	7.12566
7.54	7.1283
7.55	7.17797
7.56	7.1579
7.57	7.12698
7.58	7.10757
7.59	7.13652
7.6	7.1306
7.61	7.0931
7.62	7.12534
7.63	7.12534
7.64	7.11481
7.65	7.15264
7.66	7.13224
7.67	7.1352
7.68	7.13816
7.69	7.09968
7.7	7.13784
7.71	7.15988
7.72	7.16514
7.73	7.11481
7.74	7.15001
7.75	7.14672
7.76	7.09606
7.77	7.11481
7.78	7.12501
7.79	7.11448
7.8	7.14672
7.81	7.14836
7.82	7.13685
7.83	7.0806
7.84	7.12632
7.85	7.08981
7.86	7.08586
7.87	7.10395
7.88	7.12797
7.89	7.16613
7.9	7.15264
7.91	7.09737
7.92	7.07468
7.93	7.07599
7.94	7.04639
7.95	7.05494
7.96	7.08981
7.97	7.12402
7.98	7.11119
7.99	7.07829
8	7.07402
8.01	7.07501
8.02	7.15165
8.03	7.09408
8.04	7.03816
8.05	7.01349
8.06	7.06908
8.07	7.06349
8.08	7.07237
8.09	7.10461
8.1	7.12961
8.11	7.10001
8.12	7.04211
8.13	7.05132
8.14	7.0931
8.15	7.12007
8.16	7.03553
8.17	7.06119
8.18	7.08356
8.19	7.08553
8.2	7.11909
8.21	7.11053
8.22	7.06645
8.23	7.02533
8.24	7.05922
8.25	7.04968
8.26	7.10099
8.27	7.05625
8.28	7.0477
8.29	7.08356
8.3	7.04244
8.31	7.01448
8.32	6.99869
8.33	7.01546
8.34	7.06481
8.35	7.04014
8.36	7.07402
8.37	7.08158
8.38	7.0204
8.39	7.00691
8.4	7.02204
8.41	6.98948
8.42	7.0329
8.43	7.04639
8.44	7.04639
8.45	7.025
8.46	7.05658
8.47	7.04441
8.48	7.04277
8.49	7.00362
8.5	7.02171
8.51	7.00987
8.52	6.97073
8.53	7.01941
8.54	7.01842
8.55	6.99079
8.56	7.00198
8.57	7.0454
8.58	6.99112
8.59	7.06152
8.6	7.02731
8.61	7.06777
8.62	7.05
8.63	7.00592
8.64	7.02237
8.65	6.96875
8.66	7.06974
8.67	7.07501
8.68	7.06382
8.69	7.04704
8.7	7.01152
8.71	7.06283
8.72	7.02862
8.73	7.02171
8.74	7.01316
8.75	7.0181
8.76	6.97402
8.77	6.97369
8.78	7.0056
8.79	7.05066
8.8	6.98948
8.81	6.99967
8.82	6.96678
8.83	6.99573
8.84	6.9977
8.85	7.00165
8.86	6.9454
8.87	6.96842
8.88	6.98224
8.89	6.97731
8.9	6.95757
8.91	6.9454
8.92	6.96678
8.93	6.98158
8.94	6.95625
8.95	6.97303
8.96	6.94178
8.97	6.93092
8.98	6.95362
8.99	6.96448
9	6.9454
9.01	6.98388
9.02	6.98487
9.03	7.00987
9.04	6.99737
9.05	6.96842
9.06	6.98125
9.07	6.93191
9.08	6.9227
9.09	6.94276
9.1	6.925
9.11	6.93454
9.12	6.94408
9.13	6.95165
9.14	6.9579
9.15	6.99112
9.16	6.97632
9.17	6.9931
9.18	6.96217
9.19	6.96678
9.2	6.93388
9.21	6.96513
9.22	6.97369
9.23	6.95329
9.24	7.00823
9.25	6.98586
9.26	7.02698
9.27	6.97862
9.28	6.92994
9.29	6.96119
9.3	6.95823
9.31	6.93882
9.32	6.88092
9.33	6.87566
9.34	6.89013
9.35	6.93684
9.36	6.95198
9.37	6.92763
9.38	6.94967
9.39	6.94605
9.4	6.95855
9.41	6.98586
9.42	6.94967
9.43	6.93915
9.44	6.96513
9.45	6.94869
9.46	6.90855
9.47	6.88322
9.48	6.92665
9.49	6.92138
9.5	6.88586
9.51	6.89408
9.52	6.92401
9.53	6.92796
9.54	6.93553
9.55	6.91875
9.56	6.89309
9.57	6.88849
9.58	6.91809
9.59	6.90395
9.6	6.91053
9.61	6.89441
9.62	6.88059
9.63	6.89441
9.64	6.95165
9.65	6.87829
9.66	6.89243
9.67	6.92599
9.68	6.89178
9.69	6.81974
9.7	6.93717
9.71	6.875
9.72	6.87368
9.73	6.92138
9.74	6.91513
9.75	6.87336
9.76	6.85099
9.77	6.89803
9.78	6.94869
9.79	6.94079
9.8	6.86842
9.81	6.92072
9.82	6.89638
9.83	6.85592
9.84	6.91283
9.85	6.92566
9.86	6.89441
9.87	6.8773
9.88	6.89079
9.89	6.83684
9.9	6.9023
9.91	6.93849
9.92	6.88158
9.93	6.86678
9.94	6.925
9.95	6.91678
9.96	6.90493
9.97	6.89967
9.98	6.9398
9.99	6.9125
10	6.84835
10.01	6.85493
10.02	6.88026
10.03	6.91579
10.04	6.87664
10.05	6.8727
10.06	6.8421
10.07	6.84737
10.08	6.87007
10.09	6.87993
10.1	6.85362
10.11	6.85493
10.12	6.86875
10.13	6.87237
10.14	6.87829
10.15	6.85099
10.16	6.83553
10.17	6.86974
10.18	6.83289
10.19	6.84967
10.2	6.86579
10.21	6.85493
10.22	6.86053
10.23	6.84046
10.24	6.8227
10.25	6.86842
10.26	6.8523
10.27	6.84737
10.28	6.85164
10.29	6.8352
10.3	6.8477
10.31	6.85559
10.32	6.78552
10.33	6.81974
10.34	6.8296
10.35	6.79276
10.36	6.83158
10.37	6.80033
10.38	6.85099
10.39	6.82927
10.4	6.82072
10.41	6.84342
10.42	6.86612
10.43	6.90395
10.44	6.86053
10.45	6.83454
10.46	6.83125
10.47	6.83783
10.48	6.83092
10.49	6.87763
10.5	6.86184
10.51	6.84967
10.52	6.85132
10.53	6.84375
10.54	6.84638
10.55	6.8625
10.56	6.79473
10.57	6.86316
10.58	6.82664
10.59	6.825
10.6	6.81941
10.61	6.80197
10.62	6.79079
10.63	6.83618
10.64	6.84835
10.65	6.83553
10.66	6.83947
10.67	6.77138
10.68	6.85592
10.69	6.87336
10.7	6.84046
10.71	6.81085
10.72	6.7898
10.73	6.82039
10.74	6.85493
10.75	6.84013
10.76	6.86941
10.77	6.80921
10.78	6.84013
10.79	6.85428
10.8	6.8125
10.81	6.825
10.82	6.84342
10.83	6.8
10.84	6.79539
10.85	6.79079
10.86	6.85921
10.87	6.84803
10.88	6.81908
10.89	6.83289
10.9	6.82467
10.91	6.76381
10.92	6.75559
10.93	6.85592
10.94	6.77927
10.95	6.7875
10.96	6.83816
10.97	6.8546
10.98	6.82401
10.99	6.85757
11	6.81677
11.01	6.80493
11.02	6.83816
11.03	6.83585
11.04	6.84013
11.05	6.79276
11.06	6.76908
11.07	6.78651
11.08	6.81217
11.09	6.80427
11.1	6.76118
11.11	6.75427
11.12	6.79704
11.13	6.82895
11.14	6.82533
11.15	6.79013
11.16	6.81349
11.17	6.80987
11.18	6.80658
11.19	6.81052
11.2	6.7444
11.21	6.73519
11.22	6.80395
11.23	6.79539
11.24	6.7921
11.25	6.74506
11.26	6.78717
11.27	6.73322
11.28	6.80427
11.29	6.81776
11.3	6.80329
11.31	6.77697
11.32	6.7569
11.33	6.74967
11.34	6.76381
11.35	6.75658
11.36	6.79704
11.37	6.81381
11.38	6.79046
11.39	6.75493
11.4	6.78059
11.41	6.7921
11.42	6.81875
11.43	6.8296
11.44	6.85691
11.45	6.79046
11.46	6.78388
11.47	6.76348
11.48	6.75197
11.49	6.79506
11.5	6.82664
11.51	6.76677
11.52	6.77302
11.53	6.77566
11.54	6.75921
11.55	6.78388
11.56	6.73848
11.57	6.78552
11.58	6.73092
11.59	6.7569
11.6	6.74934
11.61	6.73059
11.62	6.78158
11.63	6.78059
11.64	6.81184
11.65	6.73815
11.66	6.72105
11.67	6.72401
11.68	6.74408
11.69	6.74408
11.7	6.75427
11.71	6.72697
11.72	6.74671
11.73	6.73783
11.74	6.76118
11.75	6.73421
11.76	6.74243
11.77	6.69572
11.78	6.72236
11.79	6.75888
11.8	6.78914
11.81	6.74276
11.82	6.68782
11.83	6.73388
11.84	6.75033
11.85	6.75526
11.86	6.77072
11.87	6.75098
11.88	6.77368
11.89	6.73421
11.9	6.77993
11.91	6.75329
11.92	6.72368
11.93	6.74473
11.94	6.77434
11.95	6.78848
11.96	6.71052
11.97	6.72861
11.98	6.75131
11.99	6.7773
12	6.74671
12.01	6.78388
12.02	6.74736
12.03	6.70657
12.04	6.72697
12.05	6.71809
12.06	6.70032
12.07	6.65822
12.08	6.69144
12.09	6.72697
12.1	6.70888
12.11	6.74704
12.12	6.7375
12.13	6.7171
12.14	6.70526
12.15	6.72039
12.16	6.7375
12.17	6.70361
12.18	6.72829
12.19	6.7523
12.2	6.70526
12.21	6.66842
12.22	6.6819
12.23	6.69473
12.24	6.70921
12.25	6.73421
12.26	6.75789
12.27	6.72039
12.28	6.70953
12.29	6.7148
12.3	6.70263
12.31	6.68552
12.32	6.6694
12.33	6.66151
12.34	6.65855
12.35	6.67302
12.36	6.7319
12.37	6.71776
12.38	6.71875
12.39	6.74736
12.4	6.725
12.41	6.73223
12.42	6.68289
12.43	6.69769
12.44	6.69473
12.45	6.66513
12.46	6.68782
12.47	6.71776
12.48	6.68421
12.49	6.68848
12.5	6.71611
12.51	6.68717
12.52	6.69703
12.53	6.66217
12.54	6.7125
12.55	6.7125
12.56	6.74342
12.57	6.6671
12.58	6.64572
12.59	6.70197
12.6	6.64309
12.61	6.68322
12.62	6.7398
12.63	6.66677
12.64	6.72204
12.65	6.68552
12.66	6.69967
12.67	6.69671
12.68	6.65526
12.69	6.64572
12.7	6.63157
12.71	6.72072
12.72	6.70592
12.73	6.66151
12.74	6.67236
12.75	6.7125
12.76	6.68519
12.77	6.71644
12.78	6.70855
12.79	6.68618
12.8	6.66973
12.81	6.68026
12.82	6.63716
12.83	6.70953
12.84	6.6523
12.85	6.69638
12.86	6.65756
12.87	6.64802
12.88	6.7
12.89	6.70855
12.9	6.69934
12.91	6.63749
12.92	6.66249
12.93	6.63716
12.94	6.63716
12.95	6.66085
12.96	6.6773
12.97	6.63881
12.98	6.65986
12.99	6.67763
13	6.69276
13.01	6.67368
13.02	6.6148
13.03	6.66118
13.04	6.71217
13.05	6.64835
13.06	6.67467
13.07	6.71381
13.08	6.68684
13.09	6.70789
13.1	6.65756
13.11	6.69078
13.12	6.66874
13.13	6.66381
13.14	6.6523
13.15	6.65559
13.16	6.65986
13.17	6.64374
13.18	6.61183
13.19	6.65065
13.2	6.65164
13.21	6.7023
13.22	6.68585
13.23	6.67631
13.24	6.68124
13.25	6.65526
13.26	6.64374
13.27	6.67697
13.28	6.65263
13.29	6.65657
13.3	6.64605
13.31	6.67894
13.32	6.62039
13.33	6.65657
13.34	6.61315
13.35	6.66809
13.36	6.67335
13.37	6.64934
13.38	6.67598
13.39	6.66249
13.4	6.65361
13.41	6.66809
13.42	6.61776
13.43	6.66809
13.44	6.65888
13.45	6.65032
13.46	6.67927
13.47	6.65822
13.48	6.63848
13.49	6.63026
13.5	6.64045
13.51	6.64539
13.52	6.66743
13.53	6.65263
13.54	6.67335
13.55	6.62269
13.56	6.68585
13.57	6.65855
13.58	6.59966
13.59	6.62697
13.6	6.60526
13.61	6.59835
13.62	6.61118
13.63	6.61611
13.64	6.67368
13.65	6.61348
13.66	6.67335
13.67	6.66644
13.68	6.60032
13.69	6.62894
13.7	6.67039
13.71	6.64802
13.72	6.68552
13.73	6.69802
13.74	6.65493
13.75	6.61776
