"BIO-KINE ASCII FILE"
"_COMMENT"	"MOS-500 Spectrometer"
"_COMMENT"	"Kinetics measurement"
"_COMMENT"	"Y Unit : Volt,  X Unit : s"
"_COMMENT"	"Excitation wavelength : 380 nm"
"_COMMENT"	"Fentes bandwidth =  1 nm"
"_COMMENT"	"HV= 700V"
"_COMMENT"	"Timebase  1 =  .01 s   3001 pts"
"_SFM"	"SFM-400 /S  Advanced mode"
"_SFM"	"Ratio : S1: 2.5, S2: 0, S3: 0, S4: 1"
"_SFM"	"Content : S1: , S2: , S3: , S4:"
"_SFM"	"Concentration : S1: , S2: , S3: , S4:"
"_SFM"	"Total volume : 209 µl  Flow : 3.5 mL/s"
"_SFM"	"Acquisition start :  10 ms before stop"
"_SFM"	"cuve=FC-15, s1=10 ml , s2=10 ml , s3=10 ml , s4=1.9 ml"
"_UNITX"	"s"
"_UNITY"	"Volt"
"_DELTAX"	0
"_DATA"
1e-300	7.97601
0.01	8.50366
0.02	8.70366
0.03	8.74248
0.04	8.75432
0.05	8.7563
0.06	8.75268
0.07	8.76057
0.08	8.76781
0.09	8.75564
0.1	8.77669
0.11	8.77011
0.12	8.77406
0.13	8.77439
0.14	8.77439
0.15	8.75268
0.16	8.75958
0.17	8.77669
0.18	8.7507
0.19	8.75926
0.2	8.74051
0.21	8.74215
0.22	8.74478
0.23	8.74379
0.24	8.74018
0.25	8.73458
0.26	8.73458
0.27	8.73294
0.28	8.72504
0.29	8.7109
0.3	8.71452
0.31	8.70991
0.32	8.69248
0.33	8.69412
0.34	8.70564
0.35	8.68623
0.36	8.67833
0.37	8.68031
0.38	8.66649
0.39	8.66419
0.4	8.68031
0.41	8.66386
0.42	8.65498
0.43	8.63392
0.44	8.64215
0.45	8.63491
0.46	8.62274
0.47	8.61682
0.48	8.62208
0.49	8.61616
0.5	8.60991
0.51	8.59412
0.52	8.59938
0.53	8.59379
0.54	8.58294
0.55	8.58458
0.56	8.56419
0.57	8.5655
0.58	8.56353
0.59	8.55201
0.6	8.55333
0.61	8.54247
0.62	8.54807
0.63	8.5405
0.64	8.51945
0.65	8.52405
0.66	8.51484
0.67	8.50037
0.68	8.50103
0.69	8.49214
0.7	8.49182
0.71	8.47734
0.72	8.47668
0.73	8.46057
0.74	8.45103
0.75	8.44938
0.76	8.43754
0.77	8.43063
0.78	8.42866
0.79	8.43096
0.8	8.42767
0.81	8.4132
0.82	8.403
0.83	8.40366
0.84	8.38951
0.85	8.39412
0.86	8.37537
0.87	8.378
0.88	8.36221
0.89	8.35859
0.9	8.35004
0.91	8.35958
0.92	8.34148
0.93	8.3303
0.94	8.32536
0.95	8.33721
0.96	8.32142
0.97	8.30332
0.98	8.31319
0.99	8.29609
1	8.29082
1.01	8.28688
1.02	8.27175
1.03	8.24971
1.04	8.24115
1.05	8.25201
1.06	8.26023
1.07	8.23918
1.08	8.23523
1.09	8.23819
1.1	8.23885
1.11	8.22043
1.12	8.20365
1.13	8.20201
1.14	8.2053
1.15	8.18523
1.16	8.1803
1.17	8.17437
1.18	8.1803
1.19	8.17207
1.2	8.15891
1.21	8.14872
1.22	8.13227
1.23	8.13753
1.24	8.11977
1.25	8.12733
1.26	8.11418
1.27	8.1145
1.28	8.11615
1.29	8.10529
1.3	8.10069
1.31	8.09773
1.32	8.08852
1.33	8.09279
1.34	8.06812
1.35	8.06286
1.36	8.05398
1.37	8.06121
1.38	8.0474
1.39	8.0451
1.4	8.02963
1.41	8.0224
1.42	8.02931
1.43	8.00891
1.44	8.00759
1.45	8.00628
1.46	7.98687
1.47	7.97174
1.48	7.9724
1.49	7.9622
1.5	7.96845
1.51	7.96351
1.52	7.95233
1.53	7.95562
1.54	7.93259
1.55	7.93292
1.56	7.92766
1.57	7.90825
1.58	7.90726
1.59	7.88621
1.6	7.88358
1.61	7.88621
1.62	7.87963
1.63	7.87535
1.64	7.88095
1.65	7.87075
1.66	7.85266
1.67	7.84805
1.68	7.83489
1.69	7.82404
1.7	7.8293
1.71	7.82831
1.72	7.81713
1.73	7.81219
1.74	7.81252
1.75	7.79377
1.76	7.78555
1.77	7.76746
1.78	7.77634
1.79	7.76154
1.8	7.75364
1.81	7.75627
1.82	7.73357
1.83	7.73884
1.84	7.73686
1.85	7.71186
1.86	7.7168
1.87	7.71778
1.88	7.71219
1.89	7.69871
1.9	7.68522
1.91	7.67667
1.92	7.69311
1.93	7.66088
1.94	7.6668
1.95	7.66877
1.96	7.66153
1.97	7.64969
1.98	7.65134
1.99	7.64147
2	7.62962
2.01	7.62995
2.02	7.62699
2.03	7.6112
2.04	7.57995
2.05	7.58522
2.06	7.59147
2.07	7.59179
2.08	7.57469
2.09	7.57272
2.1	7.57173
2.11	7.57403
2.12	7.55791
2.13	7.55495
2.14	7.54377
2.15	7.5316
2.16	7.51942
2.17	7.5135
2.18	7.49903
2.19	7.51844
2.2	7.49508
2.21	7.501
2.22	7.49344
2.23	7.48159
2.24	7.47304
2.25	7.4635
2.26	7.45791
2.27	7.44903
2.28	7.44574
2.29	7.43719
2.3	7.43587
2.31	7.42732
2.32	7.41317
2.33	7.41449
2.34	7.41876
2.35	7.40561
2.36	7.40001
2.37	7.39508
2.38	7.3783
2.39	7.3737
2.4	7.36482
2.41	7.36087
2.42	7.35692
2.43	7.35166
2.44	7.3362
2.45	7.3431
2.46	7.32534
2.47	7.32797
2.48	7.32139
2.49	7.30988
2.5	7.32074
2.51	7.30264
2.52	7.28027
2.53	7.2987
2.54	7.28685
2.55	7.28455
2.56	7.26942
2.57	7.25133
2.58	7.23422
2.59	7.24244
2.6	7.24606
2.61	7.23817
2.62	7.23356
2.63	7.22073
2.64	7.2056
2.65	7.21218
2.66	7.20428
2.67	7.19409
2.68	7.18488
2.69	7.18619
2.7	7.18257
2.71	7.16876
2.72	7.14441
2.73	7.14968
2.74	7.15494
2.75	7.16843
2.76	7.14409
2.77	7.15494
2.78	7.13849
2.79	7.13389
2.8	7.13224
2.81	7.12632
2.82	7.0908
2.83	7.08487
2.84	7.09112
2.85	7.08158
2.86	7.09145
2.87	7.07928
2.88	7.06415
2.89	7.05625
2.9	7.05724
2.91	7.05395
2.92	7.05165
2.93	7.04573
2.94	7.02829
2.95	7.0352
2.96	7.02599
2.97	7.01711
2.98	7.02204
2.99	7.01514
3	7.0056
3.01	6.98619
3.02	6.9829
3.03	6.99112
3.04	6.97106
3.05	6.97204
3.06	6.97467
3.07	6.97106
3.08	6.95691
3.09	6.94013
3.1	6.92829
3.11	6.92829
3.12	6.92763
3.13	6.9329
3.14	6.91744
3.15	6.91842
3.16	6.92336
3.17	6.90461
3.18	6.91151
3.19	6.89013
3.2	6.88322
3.21	6.87434
3.22	6.86875
3.23	6.86743
3.24	6.86053
3.25	6.85362
3.26	6.85296
3.27	6.85428
3.28	6.85066
3.29	6.8296
3.3	6.82829
3.31	6.81612
3.32	6.81974
3.33	6.82138
3.34	6.8125
3.35	6.80723
3.36	6.79309
3.37	6.79276
3.38	6.78223
3.39	6.76875
3.4	6.76315
3.41	6.76875
3.42	6.76644
3.43	6.75098
3.44	6.75197
3.45	6.73618
3.46	6.725
3.47	6.73322
3.48	6.72532
3.49	6.71381
3.5	6.72072
3.51	6.73158
3.52	6.71184
3.53	6.69703
3.54	6.68684
3.55	6.68585
3.56	6.6819
3.57	6.67499
3.58	6.67368
3.59	6.66348
3.6	6.67565
3.61	6.65986
3.62	6.64868
3.63	6.64374
3.64	6.62762
3.65	6.62499
3.66	6.62631
3.67	6.62697
3.68	6.6171
3.69	6.60657
3.7	6.61052
3.71	6.59637
3.72	6.59736
3.73	6.58354
3.74	6.57499
3.75	6.5819
3.76	6.57861
3.77	6.574
3.78	6.5694
3.79	6.5615
3.8	6.54637
3.81	6.54275
3.82	6.5467
3.83	6.54177
3.84	6.53387
3.85	6.52071
3.86	6.51479
3.87	6.51019
3.88	6.49703
3.89	6.50854
3.9	6.4842
3.91	6.50262
3.92	6.49374
3.93	6.47894
3.94	6.48321
3.95	6.474
3.96	6.47137
3.97	6.4569
3.98	6.45591
3.99	6.46282
4	6.44604
4.01	6.44374
4.02	6.43387
4.03	6.44111
4.04	6.42663
4.05	6.42992
4.06	6.42466
4.07	6.41643
4.08	6.40064
4.09	6.40393
4.1	6.40229
4.11	6.38518
4.12	6.39209
4.13	6.38979
4.14	6.37959
4.15	6.37499
4.16	6.37499
4.17	6.36709
4.18	6.36545
4.19	6.36183
4.2	6.34538
4.21	6.34538
4.22	6.32992
4.23	6.33617
4.24	6.32729
4.25	6.32071
4.26	6.32663
4.27	6.31479
4.28	6.3013
4.29	6.2911
4.3	6.28354
4.31	6.28156
4.32	6.28156
4.33	6.28387
4.34	6.28058
4.35	6.27334
4.36	6.26676
4.37	6.25821
4.38	6.24604
4.39	6.24439
4.4	6.24538
4.41	6.24702
4.42	6.23748
4.43	6.2263
4.44	6.2309
4.45	6.22498
4.46	6.21676
4.47	6.20163
4.48	6.21643
4.49	6.20919
4.5	6.19472
4.51	6.19899
4.52	6.19932
4.53	6.19143
4.54	6.18353
4.55	6.17597
4.56	6.18255
4.57	6.17136
4.58	6.16544
4.59	6.14768
4.6	6.15952
4.61	6.14603
4.62	6.13748
4.63	6.1332
4.64	6.13024
4.65	6.12991
4.66	6.1263
4.67	6.12366
4.68	6.11774
4.69	6.11314
4.7	6.10393
4.71	6.1036
4.72	6.09636
4.73	6.08452
4.74	6.08847
4.75	6.09702
4.76	6.08287
4.77	6.07958
4.78	6.07596
4.79	6.07366
4.8	6.07202
4.81	6.05754
4.82	6.06116
4.83	6.05754
4.84	6.04965
4.85	6.04636
4.86	6.04767
4.87	6.03024
4.88	6.0207
4.89	6.03485
4.9	6.02498
4.91	6.01577
4.92	6.01248
4.93	6.01379
4.94	6.00557
4.95	5.99208
4.96	5.98583
4.97	5.99636
4.98	6.00359
4.99	5.98386
5	5.98188
5.01	5.9832
5.02	5.9832
5.03	5.973
5.04	5.97103
5.05	5.95293
5.06	5.9605
5.07	5.9582
5.08	5.94932
5.09	5.94241
5.1	5.94142
5.11	5.94011
5.12	5.93254
5.13	5.93714
5.14	5.92761
5.15	5.92563
5.16	5.92136
5.17	5.9128
5.18	5.90063
5.19	5.89931
5.2	5.89603
5.21	5.90688
5.22	5.89109
5.23	5.90392
5.24	5.89372
5.25	5.88912
5.26	5.89274
5.27	5.88681
5.28	5.86872
5.29	5.86379
5.3	5.87037
5.31	5.86017
5.32	5.8605
5.33	5.85984
5.34	5.85096
5.35	5.84833
5.36	5.85227
5.37	5.84241
5.38	5.82793
5.39	5.84504
5.4	5.82892
5.41	5.82069
5.42	5.82135
5.43	5.81313
5.44	5.80655
5.45	5.8026
5.46	5.81412
5.47	5.80688
5.48	5.7878
5.49	5.7855
5.5	5.78089
5.51	5.78615
5.52	5.78451
5.53	5.78813
5.54	5.76938
5.55	5.76477
5.56	5.76675
5.57	5.76214
5.58	5.75293
5.59	5.74865
5.6	5.75424
5.61	5.74767
5.62	5.73155
5.63	5.74076
5.64	5.73714
5.65	5.7322
5.66	5.73319
5.67	5.72924
5.68	5.72892
5.69	5.72661
5.7	5.71806
5.71	5.7072
5.72	5.70589
5.73	5.70556
5.74	5.70589
5.75	5.70819
5.76	5.70095
5.77	5.7049
5.78	5.69766
5.79	5.69339
5.8	5.68681
5.81	5.69076
5.82	5.68845
5.83	5.6776
5.84	5.67826
5.85	5.67661
5.86	5.66872
5.87	5.66312
5.88	5.66312
5.89	5.66345
5.9	5.67036
5.91	5.66115
5.92	5.65589
5.93	5.66115
5.94	5.63977
5.95	5.65326
5.96	5.64964
5.97	5.62891
5.98	5.6276
5.99	5.62793
6	5.63286
6.01	5.63615
6.02	5.61937
6.03	5.61115
6.04	5.61115
6.05	5.61115
6.06	5.60128
6.07	5.60687
6.08	5.6072
6.09	5.58088
6.1	5.59207
6.11	5.58977
6.12	5.58648
6.13	5.58088
6.14	5.57661
6.15	5.56937
6.16	5.56049
6.17	5.56542
6.18	5.56937
6.19	5.5549
6.2	5.55161
6.21	5.56477
6.22	5.55983
6.23	5.54898
6.24	5.54766
6.25	5.54602
6.26	5.53615
6.27	5.52529
6.28	5.52003
6.29	5.52101
6.3	5.53351
6.31	5.52924
6.32	5.51805
6.33	5.50851
6.34	5.50259
6.35	5.4947
6.36	5.50391
6.37	5.51147
6.38	5.49832
6.39	5.49305
6.4	5.48614
6.41	5.49272
6.42	5.48943
6.43	5.48647
6.44	5.48878
6.45	5.48878
6.46	5.48746
6.47	5.47529
6.48	5.47924
6.49	5.48022
6.5	5.47035
6.51	5.46378
6.52	5.44799
6.53	5.45555
6.54	5.44831
6.55	5.45325
6.56	5.45128
6.57	5.44535
6.58	5.44371
6.59	5.44437
6.6	5.43878
6.61	5.44667
6.62	5.43779
6.63	5.44733
6.64	5.4391
6.65	5.42759
6.66	5.42693
6.67	5.41608
6.68	5.42167
6.69	5.41838
6.7	5.41772
6.71	5.41772
6.72	5.42726
6.73	5.41706
6.74	5.397
6.75	5.39897
6.76	5.40259
6.77	5.40456
6.78	5.39996
6.79	5.38779
6.8	5.39141
6.81	5.39173
6.82	5.39141
6.83	5.3845
6.84	5.37726
6.85	5.38285
6.86	5.37792
6.87	5.37496
6.88	5.37792
6.89	5.3743
6.9	5.37693
6.91	5.36377
6.92	5.35127
6.93	5.37035
6.94	5.36575
6.95	5.35818
6.96	5.35029
6.97	5.35752
6.98	5.35029
6.99	5.34305
7	5.3289
7.01	5.34042
7.02	5.34042
7.03	5.33482
7.04	5.3414
7.05	5.34436
7.06	5.33384
7.07	5.31772
7.08	5.32035
7.09	5.31871
7.1	5.31015
7.11	5.30982
7.12	5.31081
7.13	5.29634
7.14	5.30653
7.15	5.29963
7.16	5.29897
7.17	5.29535
7.18	5.28252
7.19	5.28482
7.2	5.2914
7.21	5.28022
7.22	5.28943
7.23	5.29568
7.24	5.28877
7.25	5.2868
7.26	5.27166
7.27	5.29107
7.28	5.2687
7.29	5.26081
7.3	5.26673
7.31	5.26772
7.32	5.26311
7.33	5.2664
7.34	5.26541
7.35	5.25061
7.36	5.24469
7.37	5.25127
7.38	5.25193
7.39	5.24206
7.4	5.25061
7.41	5.25686
7.42	5.25259
7.43	5.25259
7.44	5.24568
7.45	5.24337
7.46	5.24666
7.47	5.23745
7.48	5.2414
7.49	5.23943
7.5	5.22166
7.51	5.22791
7.52	5.23449
7.53	5.22265
7.54	5.2391
7.55	5.22627
7.56	5.21443
7.57	5.21903
7.58	5.21903
7.59	5.22364
7.6	5.22429
7.61	5.19864
7.62	5.20653
7.63	5.21739
7.64	5.20818
7.65	5.21245
7.66	5.19436
7.67	5.18811
7.68	5.19206
7.69	5.20225
7.7	5.18646
7.71	5.19239
7.72	5.18054
7.73	5.18285
7.74	5.17758
7.75	5.18186
7.76	5.17758
7.77	5.16903
7.78	5.17857
7.79	5.17528
7.8	5.1664
7.81	5.16936
7.82	5.15785
7.83	5.15686
7.84	5.14929
7.85	5.15488
7.86	5.16114
7.87	5.14535
7.88	5.15949
7.89	5.14929
7.9	5.14535
7.91	5.15752
7.92	5.14304
7.93	5.14962
7.94	5.15061
7.95	5.15719
7.96	5.14798
7.97	5.14041
7.98	5.15127
7.99	5.13942
8	5.13252
8.01	5.13021
8.02	5.1391
8.03	5.13712
8.04	5.13186
8.05	5.1312
8.06	5.13449
8.07	5.13942
8.08	5.12363
8.09	5.12725
8.1	5.13482
8.11	5.12462
8.12	5.121
8.13	5.12429
8.14	5.12034
8.15	5.10982
8.16	5.10455
8.17	5.10324
8.18	5.11903
8.19	5.10488
8.2	5.11015
8.21	5.10258
8.22	5.0983
8.23	5.10784
8.24	5.09962
8.25	5.10752
8.26	5.09699
8.27	5.08712
8.28	5.08811
8.29	5.08909
8.3	5.08317
8.31	5.08087
8.32	5.0858
8.33	5.09205
8.34	5.08613
8.35	5.08021
8.36	5.06936
8.37	5.06376
8.38	5.06574
8.39	5.06442
8.4	5.05587
8.41	5.07232
8.42	5.07199
8.43	5.06672
8.44	5.06903
8.45	5.05982
8.46	5.06442
8.47	5.04929
8.48	5.06179
8.49	5.06607
8.5	5.05258
8.51	5.06015
8.52	5.03975
8.53	5.03087
8.54	5.04139
8.55	5.0585
8.56	5.04107
8.57	5.03712
8.58	5.0437
8.59	5.04995
8.6	5.04699
8.61	5.03843
8.62	5.04501
8.63	5.03514
8.64	5.02626
8.65	5.03317
8.66	5.03383
8.67	5.03679
8.68	5.04304
8.69	5.02857
8.7	5.02889
8.71	5.03087
8.72	5.01245
8.73	5.02297
8.74	5.02001
8.75	5.02396
8.76	5.0187
8.77	5.02988
8.78	5.00587
8.79	5.0131
8.8	5.01738
8.81	5.02659
8.82	5.01442
8.83	5.02593
8.84	5.01475
8.85	5.01146
8.86	5.00718
8.87	4.99995
8.88	5.0062
8.89	5.00389
8.9	5.00093
8.91	4.99797
8.92	4.99304
8.93	4.9881
8.94	4.98843
8.95	4.9881
8.96	4.9812
8.97	4.98054
8.98	4.97856
8.99	4.97856
9	4.98481
9.01	4.97889
9.02	4.96902
9.03	4.97462
9.04	4.98514
9.05	4.97166
9.06	4.97396
9.07	4.98152
9.08	4.97198
9.09	4.96179
9.1	4.96573
9.11	4.9631
9.12	4.96212
9.13	4.97264
9.14	4.9631
9.15	4.95554
9.16	4.96212
9.17	4.95916
9.18	4.95587
9.19	4.96244
9.2	4.95685
9.21	4.95422
9.22	4.95981
9.23	4.95916
9.24	4.94369
9.25	4.94337
9.26	4.94369
9.27	4.94994
9.28	4.94304
9.29	4.95323
9.3	4.94402
9.31	4.94402
9.32	4.94567
9.33	4.94764
9.34	4.95356
9.35	4.95126
9.36	4.93942
9.37	4.93876
9.38	4.93251
9.39	4.93547
9.4	4.93744
9.41	4.93646
9.42	4.93317
9.43	4.92922
9.44	4.92889
9.45	4.93547
9.46	4.92692
9.47	4.92198
9.48	4.92889
9.49	4.92659
9.5	4.93185
9.51	4.92264
9.52	4.9279
9.53	4.93448
9.54	4.92725
9.55	4.9154
9.56	4.91244
9.57	4.91738
9.58	4.91804
9.59	4.91639
9.6	4.91409
9.61	4.9029
9.62	4.90257
9.63	4.89994
9.64	4.90159
9.65	4.9006
9.66	4.90159
9.67	4.89665
9.68	4.90521
9.69	4.91211
9.7	4.90126
9.71	4.90192
9.72	4.89896
9.73	4.90455
9.74	4.90093
9.75	4.89534
9.76	4.90323
9.77	4.90554
9.78	4.90323
9.79	4.9029
9.8	4.89896
9.81	4.89698
9.82	4.90389
9.83	4.89896
9.84	4.89238
9.85	4.88909
9.86	4.88547
9.87	4.88909
9.88	4.8904
9.89	4.88119
9.9	4.89336
9.91	4.89896
9.92	4.89205
9.93	4.88711
9.94	4.88777
9.95	4.88251
9.96	4.8881
9.97	4.88251
9.98	4.88777
9.99	4.88185
10	4.88284
10.01	4.87856
10.02	4.86442
10.03	4.86606
10.04	4.87757
10.05	4.88053
10.06	4.87132
10.07	4.86968
10.08	4.87823
10.09	4.88119
10.1	4.86705
10.11	4.87527
10.12	4.86902
10.13	4.86968
10.14	4.87823
10.15	4.87034
10.16	4.86507
10.17	4.86145
10.18	4.85817
10.19	4.8654
10.2	4.85455
10.21	4.85455
10.22	4.85849
10.23	4.85718
10.24	4.85948
10.25	4.86442
10.26	4.85619
10.27	4.84994
10.28	4.85455
10.29	4.86113
10.3	4.85685
10.31	4.8506
10.32	4.84007
10.33	4.84632
10.34	4.84895
10.35	4.84764
10.36	4.84534
10.37	4.83744
10.38	4.85093
10.39	4.84863
10.4	4.84961
10.41	4.85257
10.42	4.8483
10.43	4.83645
10.44	4.8358
10.45	4.84007
10.46	4.8381
10.47	4.84007
10.48	4.8404
10.49	4.84205
10.5	4.83119
10.51	4.82988
10.52	4.84567
10.53	4.83119
10.54	4.82955
10.55	4.83678
10.56	4.83152
10.57	4.82297
10.58	4.83514
10.59	4.83415
10.6	4.83481
10.61	4.82593
10.62	4.83152
10.63	4.83349
10.64	4.82461
10.65	4.83744
10.66	4.8358
10.67	4.82856
10.68	4.83251
10.69	4.82922
10.7	4.82461
10.71	4.82724
10.72	4.81376
10.73	4.82922
10.74	4.83152
10.75	4.81639
10.76	4.80257
10.77	4.80981
10.78	4.82264
10.79	4.81869
10.8	4.81935
10.81	4.8233
10.82	4.8154
10.83	4.81047
10.84	4.81014
10.85	4.80389
10.86	4.8154
10.87	4.80191
10.88	4.81244
10.89	4.79994
10.9	4.80915
10.91	4.81902
10.92	4.80257
10.93	4.80586
10.94	4.7983
10.95	4.80981
10.96	4.79862
10.97	4.80093
10.98	4.80126
10.99	4.80126
11	4.80356
11.01	4.80323
11.02	4.7983
11.03	4.80257
11.04	4.79566
11.05	4.80126
11.06	4.79862
11.07	4.80158
11.08	4.80356
11.09	4.79139
11.1	4.80093
11.11	4.80257
11.12	4.79501
11.13	4.79369
11.14	4.79303
11.15	4.79533
11.16	4.78415
11.17	4.7904
11.18	4.78744
11.19	4.79468
11.2	4.78547
11.21	4.78876
11.22	4.79435
11.23	4.78941
11.24	4.7904
11.25	4.78382
11.26	4.7881
11.27	4.78185
11.28	4.78843
11.29	4.77823
11.3	4.78678
11.31	4.7927
11.32	4.77625
11.33	4.78119
11.34	4.77757
11.35	4.7756
11.36	4.77823
11.37	4.78283
11.38	4.77823
11.39	4.77527
11.4	4.78941
11.41	4.77527
11.42	4.7881
11.43	4.77264
11.44	4.7779
11.45	4.77494
11.46	4.77099
11.47	4.7779
11.48	4.77954
11.49	4.77231
11.5	4.77132
11.51	4.77428
11.52	4.76573
11.53	4.76803
11.54	4.77889
11.55	4.7631
11.56	4.76474
11.57	4.76639
11.58	4.76474
11.59	4.76639
11.6	4.75981
11.61	4.76474
11.62	4.7529
11.63	4.76244
11.64	4.75915
11.65	4.7552
11.66	4.75586
11.67	4.75158
11.68	4.7529
11.69	4.74731
11.7	4.76112
11.71	4.76639
11.72	4.75948
11.73	4.75915
11.74	4.75718
11.75	4.76408
11.76	4.7552
11.77	4.75257
11.78	4.75323
11.79	4.74961
11.8	4.75323
11.81	4.76573
11.82	4.7654
11.83	4.76112
11.84	4.74994
11.85	4.7506
11.86	4.74468
11.87	4.74862
11.88	4.75586
11.89	4.7529
11.9	4.75553
11.91	4.75323
11.92	4.75191
11.93	4.74303
11.94	4.74796
11.95	4.74435
11.96	4.74731
11.97	4.74533
11.98	4.75191
11.99	4.74435
12	4.7529
12.01	4.7529
12.02	4.73908
12.03	4.73744
12.04	4.73546
12.05	4.73382
12.06	4.74073
12.07	4.74435
12.08	4.7427
12.09	4.7381
12.1	4.73645
12.11	4.74533
12.12	4.74073
12.13	4.7325
12.14	4.74139
12.15	4.73382
12.16	4.73842
12.17	4.74073
12.18	4.73053
12.19	4.73777
12.2	4.74007
12.21	4.74533
12.22	4.73744
12.23	4.7404
12.24	4.73842
12.25	4.74336
12.26	4.73744
12.27	4.74533
12.28	4.73448
12.29	4.73152
12.3	4.73744
12.31	4.73974
12.32	4.73053
12.33	4.72527
12.34	4.74895
12.35	4.72889
12.36	4.74106
12.37	4.73612
12.38	4.73678
12.39	4.72395
12.4	4.72527
12.41	4.7427
12.42	4.73382
12.43	4.72724
12.44	4.73382
12.45	4.73448
12.46	4.72856
12.47	4.72987
12.48	4.72658
12.49	4.72724
12.5	4.73382
12.51	4.7427
12.52	4.73711
12.53	4.73481
12.54	4.72658
12.55	4.73185
12.56	4.73185
12.57	4.72033
12.58	4.71573
12.59	4.72362
12.6	4.72231
12.61	4.72625
12.62	4.73152
12.63	4.72
12.64	4.7279
12.65	4.72362
12.66	4.72033
12.67	4.7177
12.68	4.7154
12.69	4.72198
12.7	4.72428
12.71	4.72527
12.72	4.72395
12.73	4.72
12.74	4.71342
12.75	4.71408
12.76	4.7075
12.77	4.71342
12.78	4.70981
12.79	4.71408
12.8	4.7154
12.81	4.70652
12.82	4.71342
12.83	4.72263
12.84	4.71869
12.85	4.71277
12.86	4.7154
12.87	4.71737
12.88	4.70388
12.89	4.7075
12.9	4.7131
12.91	4.7075
12.92	4.71211
12.93	4.70619
12.94	4.72329
12.95	4.71474
12.96	4.70684
12.97	4.70717
12.98	4.71277
12.99	4.71507
13	4.69698
13.01	4.70586
13.02	4.70323
13.03	4.7075
13.04	4.70224
13.05	4.70027
13.06	4.70783
13.07	4.70257
13.08	4.70783
13.09	4.71342
13.1	4.70224
13.11	4.70553
13.12	4.69533
13.13	4.69961
13.14	4.71375
13.15	4.71803
13.16	4.70487
13.17	4.70849
13.18	4.69698
13.19	4.69336
13.2	4.69862
13.21	4.70191
13.22	4.70158
13.23	4.70388
13.24	4.69928
13.25	4.70421
13.26	4.70027
13.27	4.69237
13.28	4.68974
13.29	4.69796
13.3	4.6904
13.31	4.69533
13.32	4.69928
13.33	4.68974
13.34	4.68645
13.35	4.68349
13.36	4.69073
13.37	4.69138
13.38	4.68645
13.39	4.6825
13.4	4.68053
13.41	4.68678
13.42	4.68908
13.43	4.68908
13.44	4.6848
13.45	4.68941
13.46	4.6904
13.47	4.695
13.48	4.68809
13.49	4.68448
13.5	4.68448
13.51	4.67823
13.52	4.68184
13.53	4.67691
13.54	4.67987
13.55	4.69369
13.56	4.68711
13.57	4.68316
13.58	4.67921
13.59	4.67494
13.6	4.68184
13.61	4.68974
13.62	4.6825
13.63	4.6723
13.64	4.6848
13.65	4.67757
13.66	4.67428
13.67	4.67823
13.68	4.66671
13.69	4.68086
13.7	4.66375
13.71	4.66803
13.72	4.67099
13.73	4.6723
13.74	4.67691
13.75	4.67855
13.76	4.6825
