"BIO-KINE ASCII FILE"
"_COMMENT"	"MOS-500 Spectrometer"
"_COMMENT"	"Kinetics measurement"
"_COMMENT"	"Y Unit : Volt,  X Unit : s"
"_COMMENT"	"Excitation wavelength : 380 nm"
"_COMMENT"	"Fentes bandwidth =  1 nm"
"_COMMENT"	"HV= 750V"
"_COMMENT"	"Timebase  1 =  .01 s   3001 pts"
"_SFM"	"SFM-400 /S  Advanced mode"
"_SFM"	"Ratio : S1: 2.5, S2: 0, S3: 0, S4: 1"
"_SFM"	"Content : S1: , S2: , S3: , S4:"
"_SFM"	"Concentration : S1: , S2: , S3: , S4:"
"_SFM"	"Total volume : 209 µl  Flow : 3.5 mL/s"
"_SFM"	"Acquisition start :  10 ms before stop"
"_SFM"	"cuve=FC-15, s1=10 ml , s2=10 ml , s3=10 ml , s4=1.9 ml"
"_UNITX"	"s"
"_UNITY"	"Volt"
"_DELTAX"	0
"_DATA"
1e-300	6.78223
0.01	7.42107
0.02	7.52699
0.03	7.49179
0.04	7.49179
0.05	7.49278
0.06	7.50067
0.07	7.49245
0.08	7.49442
0.09	7.50791
0.1	7.52469
0.11	7.52239
0.12	7.50923
0.13	7.51021
0.14	7.51186
0.15	7.51712
0.16	7.5214
0.17	7.53423
0.18	7.51778
0.19	7.50396
0.2	7.50956
0.21	7.50923
0.22	7.50495
0.23	7.49936
0.24	7.501
0.25	7.49903
0.26	7.49179
0.27	7.47666
0.28	7.47107
0.29	7.48554
0.3	7.47962
0.31	7.46482
0.32	7.47238
0.33	7.43587
0.34	7.46712
0.35	7.46054
0.36	7.45626
0.37	7.43258
0.38	7.42567
0.39	7.43094
0.4	7.43159
0.41	7.44475
0.42	7.43291
0.43	7.41186
0.44	7.39442
0.45	7.40857
0.46	7.40922
0.47	7.41975
0.48	7.3987
0.49	7.39278
0.5	7.38192
0.51	7.38389
0.52	7.37107
0.53	7.37633
0.54	7.36679
0.55	7.37797
0.56	7.3556
0.57	7.35231
0.58	7.34179
0.59	7.35824
0.6	7.33488
0.61	7.32468
0.62	7.31218
0.63	7.326
0.64	7.32962
0.65	7.32929
0.66	7.3181
0.67	7.29277
0.68	7.29343
0.69	7.3033
0.7	7.28389
0.71	7.26218
0.72	7.26218
0.73	7.26679
0.74	7.24573
0.75	7.25593
0.76	7.25001
0.77	7.23027
0.78	7.24705
0.79	7.23422
0.8	7.22435
0.81	7.23521
0.82	7.22632
0.83	7.20757
0.84	7.21481
0.85	7.20725
0.86	7.17764
0.87	7.18882
0.88	7.19639
0.89	7.19705
0.9	7.18224
0.91	7.17336
0.92	7.16152
0.93	7.16086
0.94	7.16744
0.95	7.14902
0.96	7.15198
0.97	7.1352
0.98	7.1204
0.99	7.13718
1	7.11251
1.01	7.09935
1.02	7.11481
1.03	7.09902
1.04	7.08586
1.05	7.1033
1.06	7.09244
1.07	7.08257
1.08	7.08849
1.09	7.07336
1.1	7.08487
1.11	7.09014
1.12	7.0556
1.13	7.06152
1.14	7.05297
1.15	7.03356
1.16	7.02632
1.17	7.03948
1.18	7.01152
1.19	7.01612
1.2	7.02106
1.21	7.00987
1.22	6.99277
1.23	7.01448
1.24	6.99704
1.25	6.98454
1.26	6.97665
1.27	6.99013
1.28	6.96053
1.29	6.96777
1.3	6.95724
1.31	6.94605
1.32	6.93651
1.33	6.94803
1.34	6.93849
1.35	6.90987
1.36	6.92796
1.37	6.93257
1.38	6.93125
1.39	6.90362
1.4	6.9079
1.41	6.9023
1.42	6.91283
1.43	6.88882
1.44	6.8852
1.45	6.88717
1.46	6.86612
1.47	6.86842
1.48	6.87039
1.49	6.88224
1.5	6.86908
1.51	6.84572
1.52	6.8375
1.53	6.84605
1.54	6.86513
1.55	6.8421
1.56	6.83849
1.57	6.82105
1.58	6.82829
1.59	6.82368
1.6	6.82697
1.61	6.81316
1.62	6.80888
1.63	6.80066
1.64	6.79638
1.65	6.79572
1.66	6.77105
1.67	6.77204
1.68	6.76513
1.69	6.75855
1.7	6.76315
1.71	6.76381
1.72	6.74539
1.73	6.73388
1.74	6.73059
1.75	6.73026
1.76	6.71579
1.77	6.71743
1.78	6.73618
1.79	6.70855
1.8	6.6898
1.81	6.6921
1.82	6.69901
1.83	6.69078
1.84	6.68322
1.85	6.68453
1.86	6.64999
1.87	6.66085
1.88	6.66151
1.89	6.64868
1.9	6.6444
1.91	6.64111
1.92	6.63059
1.93	6.63782
1.94	6.63651
1.95	6.62631
1.96	6.62697
1.97	6.61282
1.98	6.59473
1.99	6.61052
2	6.59144
2.01	6.60723
2.02	6.59802
2.03	6.57072
2.04	6.57072
2.05	6.57006
2.06	6.55394
2.07	6.54506
2.08	6.54736
2.09	6.55295
2.1	6.53157
2.11	6.54275
2.12	6.53289
2.13	6.53256
2.14	6.53387
2.15	6.51052
2.16	6.50657
2.17	6.5092
2.18	6.50131
2.19	6.50098
2.2	6.49736
2.21	6.48617
2.22	6.47137
2.23	6.47302
2.24	6.47302
2.25	6.46907
2.26	6.45854
2.27	6.44374
2.28	6.45262
2.29	6.45657
2.3	6.42861
2.31	6.43288
2.32	6.43124
2.33	6.42104
2.34	6.42532
2.35	6.41512
2.36	6.40722
2.37	6.40821
2.38	6.41117
2.39	6.4115
2.4	6.39768
2.41	6.37499
2.42	6.37729
2.43	6.36018
2.44	6.34637
2.45	6.33979
2.46	6.3513
2.47	6.35064
2.48	6.35656
2.49	6.35788
2.5	6.31841
2.51	6.32071
2.52	6.30919
2.53	6.32334
2.54	6.3217
2.55	6.31775
2.56	6.32005
2.57	6.30755
2.58	6.29472
2.59	6.28748
2.6	6.25985
2.61	6.27564
2.62	6.27564
2.63	6.28551
2.64	6.27893
2.65	6.24965
2.66	6.26413
2.67	6.23814
2.68	6.25919
2.69	6.26808
2.7	6.26413
2.71	6.24209
2.72	6.2513
2.73	6.23584
2.74	6.2309
2.75	6.24176
2.76	6.23156
2.77	6.22564
2.78	6.22531
2.79	6.21709
2.8	6.21314
2.81	6.20985
2.82	6.19636
2.83	6.18978
2.84	6.18156
2.85	6.18024
2.86	6.17038
2.87	6.18518
2.88	6.1559
2.89	6.16347
2.9	6.15097
2.91	6.14505
2.92	6.15919
2.93	6.13814
2.94	6.13386
2.95	6.11676
2.96	6.12597
2.97	6.12531
2.98	6.11412
2.99	6.10162
3	6.09472
3.01	6.09537
3.02	6.10064
3.03	6.09406
3.04	6.08847
3.05	6.06544
3.06	6.0786
3.07	6.07695
3.08	6.073
3.09	6.05327
3.1	6.04175
3.11	6.04307
3.12	6.04438
3.13	6.04537
3.14	6.05261
3.15	6.04044
3.16	6.03616
3.17	6.03057
3.18	6.01379
3.19	6.02333
3.2	6.03287
3.21	6.02103
3.22	6.00458
3.23	5.99175
3.24	5.99471
3.25	5.99373
3.26	5.98386
3.27	5.98484
3.28	5.97169
3.29	5.98155
3.3	5.96741
3.31	5.9503
3.32	5.94932
3.33	5.94603
3.34	5.94833
3.35	5.95557
3.36	5.9457
3.37	5.93353
3.38	5.92793
3.39	5.92596
3.4	5.90721
3.41	5.9128
3.42	5.90195
3.43	5.90228
3.44	5.91609
3.45	5.90491
3.46	5.91412
3.47	5.89142
3.48	5.87267
3.49	5.87267
3.5	5.86938
3.51	5.87629
3.52	5.88714
3.53	5.86609
3.54	5.87102
3.55	5.86148
3.56	5.85458
3.57	5.85425
3.58	5.83583
3.59	5.83122
3.6	5.8253
3.61	5.82563
3.62	5.81938
3.63	5.80622
3.64	5.81379
3.65	5.81346
3.66	5.80425
3.67	5.80688
3.68	5.7901
3.69	5.79372
3.7	5.80129
3.71	5.76938
3.72	5.76115
3.73	5.77497
3.74	5.77596
3.75	5.76806
3.76	5.76082
3.77	5.74799
3.78	5.75326
3.79	5.75753
3.8	5.75359
3.81	5.75589
3.82	5.73023
3.83	5.72431
3.84	5.73155
3.85	5.73122
3.86	5.72036
3.87	5.72398
3.88	5.72036
3.89	5.69076
3.9	5.70457
3.91	5.7049
3.92	5.70589
3.93	5.68187
3.94	5.68385
3.95	5.68911
3.96	5.67332
3.97	5.67694
3.98	5.67694
3.99	5.66345
4	5.67135
4.01	5.65556
4.02	5.64437
4.03	5.64437
4.04	5.66773
4.05	5.65062
4.06	5.64174
4.07	5.6424
4.08	5.64207
4.09	5.64832
4.1	5.63812
4.11	5.62135
4.12	5.622
4.13	5.61937
4.14	5.60983
4.15	5.62398
4.16	5.62595
4.17	5.62628
4.18	5.61806
4.19	5.60029
4.2	5.59108
4.21	5.597
4.22	5.59602
4.23	5.58417
4.24	5.59602
4.25	5.5822
4.26	5.58385
4.27	5.56806
4.28	5.56444
4.29	5.55391
4.3	5.57036
4.31	5.55358
4.32	5.54338
4.33	5.54733
4.34	5.54569
4.35	5.54766
4.36	5.53516
4.37	5.52496
4.38	5.53582
4.39	5.52661
4.4	5.52266
4.41	5.52036
4.42	5.51476
4.43	5.50753
4.44	5.50391
4.45	5.49667
4.46	5.48318
4.47	5.47364
4.48	5.48483
4.49	5.47858
4.5	5.46114
4.51	5.4822
4.52	5.47825
4.53	5.47792
4.54	5.46937
4.55	5.45687
4.56	5.45753
4.57	5.4618
4.58	5.43976
4.59	5.4391
4.6	5.42397
4.61	5.43252
4.62	5.4243
4.63	5.43417
4.64	5.41641
4.65	5.4266
4.66	5.41048
4.67	5.4016
4.68	5.40555
4.69	5.40292
4.7	5.39798
4.71	5.40029
4.72	5.40358
4.73	5.40226
4.74	5.39831
4.75	5.38121
4.76	5.38384
4.77	5.39338
4.78	5.40029
4.79	5.38088
4.8	5.36673
4.81	5.35588
4.82	5.347
4.83	5.34206
4.84	5.35555
4.85	5.34667
4.86	5.34107
4.87	5.34338
4.88	5.33844
4.89	5.34404
4.9	5.32463
4.91	5.33482
4.92	5.32857
4.93	5.33713
4.94	5.33351
4.95	5.32496
4.96	5.31805
4.97	5.32956
4.98	5.32035
4.99	5.32101
5	5.31015
5.01	5.31673
5.02	5.30028
5.03	5.28482
5.04	5.28713
5.05	5.29272
5.06	5.2891
5.07	5.28285
5.08	5.2868
5.09	5.26936
5.1	5.27528
5.11	5.27693
5.12	5.26969
5.13	5.25982
5.14	5.26541
5.15	5.2641
5.16	5.26509
5.17	5.26772
5.18	5.23285
5.19	5.24239
5.2	5.24074
5.21	5.24864
5.22	5.24601
5.23	5.24107
5.24	5.22232
5.25	5.22331
5.26	5.23252
5.27	5.22298
5.28	5.21311
5.29	5.20653
5.3	5.19995
5.31	5.21508
5.32	5.20061
5.33	5.19008
5.34	5.18318
5.35	5.20357
5.36	5.1937
5.37	5.19239
5.38	5.19041
5.39	5.19337
5.4	5.17956
5.41	5.17199
5.42	5.15982
5.43	5.14107
5.44	5.15488
5.45	5.16179
5.46	5.15554
5.47	5.17067
5.48	5.17166
5.49	5.15423
5.5	5.13712
5.51	5.13087
5.52	5.14699
5.53	5.14633
5.54	5.14337
5.55	5.13515
5.56	5.13284
5.57	5.12627
5.58	5.12133
5.59	5.12594
5.6	5.12265
5.61	5.11607
5.62	5.11179
5.63	5.11212
5.64	5.10423
5.65	5.10061
5.66	5.11969
5.67	5.09863
5.68	5.10094
5.69	5.09699
5.7	5.08778
5.71	5.09238
5.72	5.10521
5.73	5.08745
5.74	5.08383
5.75	5.08317
5.76	5.07955
5.77	5.0733
5.78	5.06936
5.79	5.0733
5.8	5.07034
5.81	5.06442
5.82	5.04468
5.83	5.05686
5.84	5.05192
5.85	5.05324
5.86	5.04929
5.87	5.04929
5.88	5.04041
5.89	5.03811
5.9	5.03843
5.91	5.03383
5.92	5.03482
5.93	5.0358
5.94	5.01574
5.95	5.02824
5.96	5.03514
5.97	5.01409
5.98	5.00751
5.99	5.00718
6	5.00192
6.01	5.00455
6.02	5.00718
6.03	5.00587
6.04	5.00028
6.05	4.98481
6.06	4.99962
6.07	4.99106
6.08	4.99995
6.09	4.98317
6.1	4.97297
6.11	4.99205
6.12	4.98251
6.13	4.98383
6.14	4.97955
6.15	4.97133
6.16	4.95587
6.17	4.96606
6.18	4.95916
6.19	4.94304
6.2	4.96212
6.21	4.96343
6.22	4.94501
6.23	4.94797
6.24	4.95192
6.25	4.94731
6.26	4.92988
6.27	4.94534
6.28	4.95258
6.29	4.93119
6.3	4.94501
6.31	4.94994
6.32	4.93744
6.33	4.91442
6.34	4.91047
6.35	4.91902
6.36	4.91343
6.37	4.9154
6.38	4.92659
6.39	4.91968
6.4	4.91179
6.41	4.92231
6.42	4.8983
6.43	4.90027
6.44	4.89698
6.45	4.89534
6.46	4.89501
6.47	4.88613
6.48	4.89007
6.49	4.89567
6.5	4.89435
6.51	4.88382
6.52	4.88086
6.53	4.87428
6.54	4.87396
6.55	4.87165
6.56	4.87264
6.57	4.87659
6.58	4.86606
6.59	4.85455
6.6	4.86507
6.61	4.86376
6.62	4.85981
6.63	4.85652
6.64	4.85323
6.65	4.8427
6.66	4.84928
6.67	4.85817
6.68	4.85356
6.69	4.84895
6.7	4.84994
6.71	4.85619
6.72	4.83316
6.73	4.83284
6.74	4.83941
6.75	4.84172
6.76	4.8404
6.77	4.84698
6.78	4.81441
6.79	4.81409
6.8	4.81343
6.81	4.82461
6.82	4.81639
6.83	4.82231
6.84	4.80158
6.85	4.82428
6.86	4.82132
6.87	4.79797
6.88	4.80487
6.89	4.81737
6.9	4.80619
6.91	4.80224
6.92	4.78415
6.93	4.80422
6.94	4.79632
6.95	4.78086
6.96	4.78415
6.97	4.78777
6.98	4.78777
6.99	4.78448
7	4.77033
7.01	4.78086
7.02	4.78777
7.03	4.76869
7.04	4.77494
7.05	4.78053
7.06	4.77724
7.07	4.75191
7.08	4.77231
7.09	4.7631
7.1	4.75158
7.11	4.75224
7.12	4.76079
7.13	4.76441
7.14	4.75454
7.15	4.75586
7.16	4.75191
7.17	4.75389
7.18	4.7404
7.19	4.73448
7.2	4.73546
7.21	4.74665
7.22	4.75323
7.23	4.74007
7.24	4.74204
7.25	4.74303
7.26	4.72625
7.27	4.72494
7.28	4.7177
7.29	4.71671
7.3	4.71145
7.31	4.72921
7.32	4.72494
7.33	4.71638
7.34	4.7131
7.35	4.71507
7.36	4.71474
7.37	4.69961
7.38	4.71902
7.39	4.72132
7.4	4.70553
7.41	4.71178
7.42	4.71474
7.43	4.7052
7.44	4.70356
7.45	4.70948
7.46	4.695
7.47	4.69731
7.48	4.6848
7.49	4.69763
7.5	4.69007
7.51	4.68809
7.52	4.68152
7.53	4.69369
7.54	4.6779
7.55	4.67263
7.56	4.67
7.57	4.66145
7.58	4.67823
7.59	4.68546
7.6	4.68053
7.61	4.66145
7.62	4.67658
7.63	4.68086
7.64	4.66737
7.65	4.65454
7.66	4.66079
7.67	4.65684
7.68	4.65816
7.69	4.6552
7.7	4.67724
7.71	4.67033
7.72	4.65948
7.73	4.66605
7.74	4.63711
7.75	4.63546
7.76	4.62625
7.77	4.63711
7.78	4.63875
7.79	4.64204
7.8	4.64434
7.81	4.63053
7.82	4.62033
7.83	4.62362
7.84	4.62428
7.85	4.63349
7.86	4.62263
7.87	4.61803
7.88	4.61868
7.89	4.6223
7.9	4.63283
7.91	4.61309
7.92	4.60257
7.93	4.6075
7.94	4.61803
7.95	4.62066
7.96	4.61178
7.97	4.61704
7.98	4.61342
7.99	4.61638
8	4.59237
8.01	4.59763
8.02	4.61046
8.03	4.60289
8.04	4.61145
8.05	4.60454
8.06	4.58842
8.07	4.57625
8.08	4.59105
8.09	4.57855
8.1	4.59237
8.11	4.59401
8.12	4.58513
8.13	4.58316
8.14	4.56901
8.15	4.57362
8.16	4.57855
8.17	4.58118
8.18	4.57296
8.19	4.56737
8.2	4.57296
8.21	4.57395
8.22	4.57724
8.23	4.5746
8.24	4.57526
8.25	4.5552
8.26	4.56506
8.27	4.5552
8.28	4.55585
8.29	4.56375
8.3	4.56605
8.31	4.54138
8.32	4.55026
8.33	4.55223
8.34	4.56375
8.35	4.55487
8.36	4.5552
8.37	4.5496
8.38	4.53743
8.39	4.5552
8.4	4.55487
8.41	4.55289
8.42	4.54401
8.43	4.54138
8.44	4.53019
8.45	4.52592
8.46	4.53019
8.47	4.54072
8.48	4.53743
8.49	4.53348
8.5	4.52329
8.51	4.53743
8.52	4.54401
8.53	4.53973
8.54	4.52394
8.55	4.51802
8.56	4.52921
8.57	4.52493
8.58	4.51967
8.59	4.51704
8.6	4.51572
8.61	4.5223
8.62	4.52131
8.63	4.53316
8.64	4.52362
8.65	4.52296
8.66	4.51835
8.67	4.50881
8.68	4.51177
8.69	4.50158
8.7	4.51112
8.71	4.50519
8.72	4.50783
8.73	4.50355
8.74	4.51079
8.75	4.4996
8.76	4.4996
8.77	4.50684
8.78	4.50322
8.79	4.4996
8.8	4.49993
8.81	4.49039
8.82	4.49631
8.83	4.49631
8.84	4.50158
8.85	4.50059
8.86	4.4973
8.87	4.49236
8.88	4.48282
8.89	4.47921
8.9	4.48973
8.91	4.48282
8.92	4.46835
8.93	4.48052
8.94	4.48217
8.95	4.4848
8.96	4.47888
8.97	4.47625
8.98	4.47361
8.99	4.4825
9	4.47263
9.01	4.47164
9.02	4.47526
9.03	4.4621
9.04	4.45552
9.05	4.46013
9.06	4.46934
9.07	4.45947
9.08	4.4598
9.09	4.46605
9.1	4.45947
9.11	4.46539
9.12	4.45717
9.13	4.45914
9.14	4.45322
9.15	4.44894
9.16	4.46078
9.17	4.45552
9.18	4.45717
9.19	4.45651
9.2	4.44072
9.21	4.45453
9.22	4.46342
9.23	4.4575
9.24	4.45388
9.25	4.4269
9.26	4.43447
9.27	4.44927
9.28	4.44467
9.29	4.45651
9.3	4.43085
9.31	4.44236
9.32	4.44565
9.33	4.42953
9.34	4.42197
9.35	4.44236
9.36	4.43118
9.37	4.42592
9.38	4.42756
9.39	4.42328
9.4	4.44467
9.41	4.4348
9.42	4.43644
9.43	4.43973
9.44	4.43052
9.45	4.41868
9.46	4.42361
9.47	4.42394
9.48	4.43874
9.49	4.43249
9.5	4.42295
9.51	4.42953
9.52	4.40914
9.53	4.41374
9.54	4.41736
9.55	4.41243
9.56	4.41934
9.57	4.40881
9.58	4.40585
9.59	4.41144
9.6	4.40552
9.61	4.40618
9.62	4.40256
9.63	4.39894
9.64	4.40519
9.65	4.39762
9.66	4.4223
9.67	4.42098
9.68	4.40848
9.69	4.39269
9.7	4.38348
9.71	4.39368
9.72	4.40026
9.73	4.39894
9.74	4.38381
9.75	4.4019
9.76	4.40355
9.77	4.40552
9.78	4.40552
9.79	4.39203
9.8	4.39105
9.81	4.38874
9.82	4.39269
9.83	4.37756
9.84	4.38907
9.85	4.39565
9.86	4.38578
9.87	4.38151
9.88	4.36835
9.89	4.38348
9.9	4.38052
9.91	4.38315
9.92	4.38973
9.93	4.3848
9.94	4.38611
9.95	4.39072
9.96	4.38776
9.97	4.39006
9.98	4.38085
9.99	4.36835
10	4.37558
10.01	4.37986
10.02	4.38414
10.03	4.37526
10.04	4.36802
10.05	4.37493
10.06	4.37789
10.07	4.36966
10.08	4.37624
10.09	4.3621
10.1	4.35256
10.11	4.35749
10.12	4.36637
10.13	4.36374
10.14	4.36572
10.15	4.36177
10.16	4.35552
10.17	4.35157
10.18	4.35618
10.19	4.35289
10.2	4.34762
10.21	4.36637
10.22	4.36243
10.23	4.36144
10.24	4.35124
10.25	4.3519
10.26	4.35979
10.27	4.36769
10.28	4.35552
10.29	4.35782
10.3	4.35124
10.31	4.35881
10.32	4.35881
10.33	4.36045
10.34	4.34302
10.35	4.34993
10.36	4.35782
10.37	4.35289
10.38	4.35815
10.39	4.35848
10.4	4.34269
10.41	4.35223
10.42	4.34532
10.43	4.3371
10.44	4.35322
10.45	4.34499
10.46	4.34499
10.47	4.35025
10.48	4.35025
10.49	4.35091
10.5	4.35025
10.51	4.33743
10.52	4.34631
10.53	4.34697
10.54	4.33479
10.55	4.32986
10.56	4.33677
10.57	4.35322
10.58	4.34236
10.59	4.34269
10.6	4.33611
10.61	4.32328
10.62	4.319
10.63	4.32624
10.64	4.32295
10.65	4.33085
10.66	4.33677
10.67	4.33348
10.68	4.32953
10.69	4.34466
10.7	4.3246
10.71	4.3269
10.72	4.31769
10.73	4.3292
10.74	4.33052
10.75	4.32558
10.76	4.32854
10.77	4.3292
10.78	4.32789
10.79	4.31341
10.8	4.32065
10.81	4.30914
10.82	4.319
10.83	4.3042
10.84	4.31111
10.85	4.30354
10.86	4.30946
10.87	4.31473
10.88	4.31769
10.89	4.32262
10.9	4.31308
10.91	4.31144
10.92	4.30453
10.93	4.30124
10.94	4.30683
10.95	4.32196
10.96	4.30486
10.97	4.30617
10.98	4.2996
10.99	4.30815
11	4.29894
11.01	4.29992
11.02	4.29499
11.03	4.29104
11.04	4.30321
11.05	4.29729
11.06	4.29992
11.07	4.2917
11.08	4.29696
11.09	4.3019
11.1	4.2894
11.11	4.28578
11.12	4.28413
11.13	4.28907
11.14	4.28874
11.15	4.29236
11.16	4.29466
11.17	4.2894
11.18	4.29927
11.19	4.29532
11.2	4.29071
11.21	4.29696
11.22	4.28413
11.23	4.27065
11.24	4.29927
11.25	4.28808
11.26	4.29466
11.27	4.30124
11.28	4.29663
11.29	4.27427
11.3	4.28512
11.31	4.29269
11.32	4.30321
11.33	4.29302
11.34	4.28808
11.35	4.28808
11.36	4.28512
11.37	4.2894
11.38	4.28775
11.39	4.2815
11.4	4.27986
11.41	4.27065
11.42	4.2792
11.43	4.2769
11.44	4.27196
11.45	4.27229
11.46	4.28381
11.47	4.27756
11.48	4.27328
11.49	4.2769
11.5	4.29006
11.51	4.27657
11.52	4.2815
11.53	4.28545
11.54	4.27756
11.55	4.28578
11.56	4.26802
11.57	4.27394
11.58	4.27295
11.59	4.27723
11.6	4.2815
11.61	4.2769
11.62	4.27788
11.63	4.25683
11.64	4.25913
11.65	4.25848
11.66	4.26867
11.67	4.26637
11.68	4.26867
11.69	4.26604
11.7	4.25683
11.71	4.26473
11.72	4.2667
11.73	4.27558
11.74	4.2713
11.75	4.26867
11.76	4.26604
11.77	4.24598
11.78	4.25815
11.79	4.2644
11.8	4.25946
11.81	4.26505
11.82	4.2713
11.83	4.26473
11.84	4.26374
11.85	4.25288
11.86	4.2463
11.87	4.27558
11.88	4.25716
11.89	4.24762
11.9	4.25124
11.91	4.25453
11.92	4.24795
11.93	4.2519
11.94	4.25552
11.95	4.25716
11.96	4.25058
11.97	4.2542
11.98	4.24861
11.99	4.25124
12	4.2338
12.01	4.25486
12.02	4.25223
12.03	4.25354
12.04	4.2463
12.05	4.24729
12.06	4.2519
12.07	4.24663
12.08	4.26999
12.09	4.24598
12.1	4.23644
12.11	4.23611
12.12	4.24301
12.13	4.23808
12.14	4.22097
12.15	4.23413
12.16	4.24071
12.17	4.24499
12.18	4.24532
12.19	4.23117
12.2	4.22624
12.21	4.24071
12.22	4.23512
12.23	4.23347
12.24	4.25091
12.25	4.244
12.26	4.23117
12.27	4.24038
12.28	4.22854
12.29	4.2338
12.3	4.23479
12.31	4.23907
12.32	4.22722
12.33	4.22953
12.34	4.21472
12.35	4.22426
12.36	4.23874
12.37	4.22722
12.38	4.22361
12.39	4.2144
12.4	4.24104
12.41	4.23315
12.42	4.21736
12.43	4.2167
12.44	4.23084
12.45	4.22426
12.46	4.23249
12.47	4.23249
12.48	4.22953
12.49	4.22953
12.5	4.22394
12.51	4.22821
12.52	4.22591
12.53	4.22196
12.54	4.23578
12.55	4.21637
12.56	4.2213
12.57	4.23183
12.58	4.23183
12.59	4.21966
12.6	4.20387
12.61	4.20058
12.62	4.22788
12.63	4.23183
12.64	4.22361
12.65	4.21571
12.66	4.22097
12.67	4.21834
12.68	4.21637
12.69	4.22229
12.7	4.22065
12.71	4.21341
12.72	4.21078
12.73	4.22854
12.74	4.21472
12.75	4.20979
12.76	4.21736
12.77	4.2042
12.78	4.20847
12.79	4.219
12.8	4.23347
12.81	4.22624
12.82	4.20749
12.83	4.21966
12.84	4.19992
12.85	4.21637
12.86	4.21834
12.87	4.22426
12.88	4.2213
12.89	4.21045
12.9	4.20091
12.91	4.20222
12.92	4.19893
12.93	4.21143
12.94	4.2065
12.95	4.2144
12.96	4.20354
12.97	4.19564
12.98	4.20913
12.99	4.20453
13	4.21242
13.01	4.21242
13.02	4.1963
13.03	4.20486
13.04	4.2065
13.05	4.19992
13.06	4.20321
13.07	4.20288
13.08	4.1917
13.09	4.20354
13.1	4.2144
13.11	4.21275
13.12	4.19762
13.13	4.19861
13.14	4.1963
13.15	4.21045
13.16	4.20946
13.17	4.20683
13.18	4.21209
13.19	4.21374
13.2	4.20584
13.21	4.20058
13.22	4.19663
13.23	4.19861
13.24	4.21407
13.25	4.20222
13.26	4.19828
13.27	4.20913
13.28	4.21867
13.29	4.20946
13.3	4.20157
13.31	4.19696
13.32	4.20321
13.33	4.20584
13.34	4.1963
13.35	4.19926
13.36	4.20058
13.37	4.19301
13.38	4.19696
13.39	4.1917
13.4	4.19597
13.41	4.194
13.42	4.19104
13.43	4.19005
13.44	4.19137
13.45	4.19795
13.46	4.19762
13.47	4.19532
13.48	4.18249
13.49	4.1815
13.5	4.19696
13.51	4.18249
13.52	4.1861
13.53	4.18512
13.54	4.19893
13.55	4.20058
13.56	4.1838
13.57	4.19071
13.58	4.21078
13.59	4.19597
13.6	4.18578
13.61	4.1815
13.62	4.1792
13.63	4.18051
13.64	4.16735
13.65	4.18545
13.66	4.19795
13.67	4.19433
13.68	4.20025
13.69	4.1917
13.7	4.17328
13.71	4.17755
13.72	4.1838
13.73	4.19532
13.74	4.19301
13.75	4.17953
