"BIO-KINE ASCII FILE"
"_COMMENT"	"MOS-500 Spectrometer"
"_COMMENT"	"Kinetics measurement"
"_COMMENT"	"Y Unit : Volt,  X Unit : s"
"_COMMENT"	"Excitation wavelength : 380 nm"
"_COMMENT"	"Fentes bandwidth =  1 nm"
"_COMMENT"	"HV= 1000V"
"_COMMENT"	"Timebase  1 =  .01 s   5001 pts"
"_SFM"	"SFM-400 /S  Advanced mode"
"_SFM"	"Ratio : S1: 2.5, S2: 0, S3: 0, S4: 1"
"_SFM"	"Content : S1: , S2: , S3: , S4:"
"_SFM"	"Concentration : S1: , S2: , S3: , S4:"
"_SFM"	"Total volume : 209 µl  Flow : 3.5 mL/s"
"_SFM"	"Acquisition start :  10 ms before stop"
"_SFM"	"cuve=FC-15, s1=10 ml , s2=10 ml , s3=10 ml , s4=1.9 ml"
"_UNITX"	"s"
"_UNITY"	"Volt"
"_DELTAX"	0
"_DATA"
1e-300	8.17503
0.01	8.45366
0.02	8.57076
0.03	8.71649
0.04	8.80169
0.05	8.80926
0.06	8.83393
0.07	8.84314
0.08	8.8711
0.09	8.89742
0.1	8.90202
0.11	8.89347
0.12	8.88426
0.13	8.87669
0.14	8.91551
0.15	8.86321
0.16	8.91255
0.17	8.94413
0.18	8.93426
0.19	8.90564
0.2	8.86946
0.21	8.93919
0.22	8.89742
0.23	8.8961
0.24	8.91814
0.25	8.94117
0.26	8.91485
0.27	8.96288
0.28	8.9609
0.29	8.90202
0.3	8.9313
0.31	8.8984
0.32	8.9359
0.33	8.86978
0.34	8.8257
0.35	8.88886
0.36	8.88755
0.37	8.88393
0.38	8.81814
0.39	8.88525
0.4	8.89742
0.41	8.86288
0.42	8.85301
0.43	8.86748
0.44	8.86156
0.45	8.87538
0.46	8.89577
0.47	8.85663
0.48	8.84676
0.49	8.76847
0.5	8.84149
0.51	8.83393
0.52	8.79511
0.53	8.8211
0.54	8.76156
0.55	8.84051
0.56	8.87406
0.57	8.76057
0.58	8.78097
0.59	8.77373
0.6	8.84544
0.61	8.79906
0.62	8.84413
0.63	8.76419
0.64	8.7859
0.65	8.7961
0.66	8.81419
0.67	8.7757
0.68	8.83524
0.69	8.76781
0.7	8.73689
0.71	8.76978
0.72	8.80695
0.73	8.7813
0.74	8.8188
0.75	8.76978
0.76	8.73985
0.77	8.77143
0.78	8.76583
0.79	8.74182
0.8	8.70564
0.81	8.69445
0.82	8.75005
0.83	8.72472
0.84	8.77998
0.85	8.71945
0.86	8.69906
0.87	8.66649
0.88	8.68162
0.89	8.63952
0.9	8.653
0.91	8.65531
0.92	8.67471
0.93	8.69939
0.94	8.67142
0.95	8.69939
0.96	8.64313
0.97	8.67208
0.98	8.64248
0.99	8.62438
1	8.58886
1.01	8.63557
1.02	8.65761
1.03	8.63952
1.04	8.67439
1.05	8.6461
1.06	8.69281
1.07	8.60037
1.08	8.60761
1.09	8.64215
1.1	8.59511
1.11	8.64971
1.12	8.66123
1.13	8.6234
1.14	8.65662
1.15	8.60662
1.16	8.53853
1.17	8.57471
1.18	8.63886
1.19	8.60925
1.2	8.60629
1.21	8.61057
1.22	8.54149
1.23	8.56254
1.24	8.58261
1.25	8.54642
1.26	8.57274
1.27	8.54971
1.28	8.528
1.29	8.54346
1.3	8.50662
1.31	8.5859
1.32	8.56846
1.33	8.55333
1.34	8.59609
1.35	8.53261
1.36	8.50859
1.37	8.54511
1.38	8.57669
1.39	8.53326
1.4	8.50103
1.41	8.48458
1.42	8.52603
1.43	8.47997
1.44	8.4701
1.45	8.51616
1.46	8.45793
1.47	8.46747
1.48	8.52109
1.49	8.47339
1.5	8.49149
1.51	8.52932
1.52	8.48228
1.53	8.46945
1.54	8.50958
1.55	8.49642
1.56	8.49214
1.57	8.47471
1.58	8.47109
1.59	8.42339
1.6	8.48425
1.61	8.47405
1.62	8.41484
1.63	8.46451
1.64	8.48228
1.65	8.41385
1.66	8.45859
1.67	8.40563
1.68	8.45563
1.69	8.43984
1.7	8.4201
1.71	8.4132
1.72	8.33589
1.73	8.37734
1.74	8.38787
1.75	8.36583
1.76	8.41024
1.77	8.43392
1.78	8.40464
1.79	8.35333
1.8	8.38787
1.81	8.40333
1.82	8.4632
1.83	8.3474
1.84	8.36122
1.85	8.37241
1.86	8.37504
1.87	8.35267
1.88	8.34148
1.89	8.33721
1.9	8.38556
1.91	8.39741
1.92	8.34017
1.93	8.38162
1.94	8.33523
1.95	8.34313
1.96	8.34083
1.97	8.25234
1.98	8.26714
1.99	8.3349
2	8.2951
2.01	8.36221
2.02	8.34148
2.03	8.31155
2.04	8.3405
2.05	8.31122
2.06	8.30431
2.07	8.37931
2.08	8.31385
2.09	8.26911
2.1	8.28819
2.11	8.25661
2.12	8.25661
2.13	8.2428
2.14	8.28096
2.15	8.2905
2.16	8.28425
2.17	8.21352
2.18	8.27569
2.19	8.24773
2.2	8.26484
2.21	8.25102
2.22	8.25201
2.23	8.31056
2.24	8.28918
2.25	8.28194
2.26	8.22141
2.27	8.20826
2.28	8.23622
2.29	8.22964
2.3	8.18589
2.31	8.19937
2.32	8.21878
2.33	8.22503
2.34	8.22964
2.35	8.2303
2.36	8.21089
2.37	8.19444
2.38	8.20563
2.39	8.16286
2.4	8.20102
2.41	8.21089
2.42	8.15727
2.43	8.13293
2.44	8.12437
2.45	8.16319
2.46	8.20003
2.47	8.17832
2.48	8.21023
2.49	8.15069
2.5	8.08556
2.51	8.11944
2.52	8.14411
2.53	8.14082
2.54	8.10102
2.55	8.10924
2.56	8.0701
2.57	8.05924
2.58	8.14181
2.59	8.21484
2.6	8.12931
2.61	8.12668
2.62	8.1201
2.63	8.12108
2.64	8.05891
2.65	8.05398
2.66	8.08128
2.67	8.13753
2.68	8.10365
2.69	8.08786
2.7	8.04773
2.71	8.09904
2.72	8.10694
2.73	8.07931
2.74	8.13556
2.75	8.10793
2.76	8.04345
2.77	8.06582
2.78	8.06582
2.79	8.1201
2.8	8.03325
2.81	8.06845
2.82	8.01944
2.83	8.03588
2.84	8.05102
2.85	8.06319
2.86	8.00562
2.87	8.02338
2.88	8.09444
2.89	8.07174
2.9	8.05266
2.91	8.02931
2.92	8.03128
2.93	8.05365
2.94	8.04082
2.95	8.04345
2.96	8.03029
2.97	8.01088
2.98	8.00562
2.99	8.03128
3	8.02996
3.01	8.01384
3.02	8.00167
3.03	7.99871
3.04	8.03654
3.05	8.01417
3.06	8.00299
3.07	8.04477
3.08	8.01417
3.09	7.97009
3.1	7.97536
3.11	7.9497
3.12	7.93818
3.13	7.95529
3.14	7.95694
3.15	7.98062
3.16	7.99246
3.17	7.94443
3.18	7.97569
3.19	8.00036
3.2	7.94016
3.21	7.92536
3.22	7.97865
3.23	8.00003
3.24	7.98292
3.25	7.93029
3.26	7.88818
3.27	7.9543
3.28	7.93457
3.29	7.91121
3.3	7.95068
3.31	7.91713
3.32	7.92864
3.33	7.88555
3.34	7.91812
3.35	7.90595
3.36	7.90595
3.37	7.96253
3.38	7.91911
3.39	7.96417
3.4	7.91286
3.41	7.94378
3.42	7.92897
3.43	7.8418
3.44	7.88522
3.45	7.86516
3.46	7.91713
3.47	7.88424
3.48	7.87272
3.49	7.86878
3.5	7.79608
3.51	7.93193
3.52	7.89147
3.53	7.8793
3.54	7.92568
3.55	7.89016
3.56	7.83489
3.57	7.8691
3.58	7.8622
3.59	7.84805
3.6	7.82305
3.61	7.81844
3.62	7.85233
3.63	7.8441
3.64	7.85858
3.65	7.87272
3.66	7.86417
3.67	7.84443
3.68	7.85068
3.69	7.83884
3.7	7.79805
3.71	7.81384
3.72	7.80233
3.73	7.78917
3.74	7.84575
3.75	7.79937
3.76	7.76384
3.77	7.8441
3.78	7.83391
3.79	7.8191
3.8	7.80397
3.81	7.76384
3.82	7.77798
3.83	7.81516
3.84	7.81022
3.85	7.81713
3.86	7.71581
3.87	7.69015
3.88	7.71844
3.89	7.74147
3.9	7.75002
3.91	7.77502
3.92	7.73982
3.93	7.75035
3.94	7.77996
3.95	7.7714
3.96	7.75726
3.97	7.78062
3.98	7.79213
3.99	7.71088
4	7.7566
4.01	7.74838
4.02	7.70035
4.03	7.65627
4.04	7.72831
4.05	7.73917
4.06	7.70824
4.07	7.75101
4.08	7.69476
4.09	7.68226
4.1	7.7043
4.11	7.72732
4.12	7.727
4.13	7.79739
4.14	7.72305
4.15	7.64903
4.16	7.69476
4.17	7.69246
4.18	7.68094
4.19	7.67107
4.2	7.71713
4.21	7.70792
4.22	7.70792
4.23	7.71614
4.24	7.6566
4.25	7.67338
4.26	7.71022
4.27	7.68884
4.28	7.63489
4.29	7.61318
4.3	7.64377
4.31	7.66745
4.32	7.62798
4.33	7.65199
4.34	7.62962
4.35	7.6214
4.36	7.6487
4.37	7.67634
4.38	7.63489
4.39	7.63094
4.4	7.62601
4.41	7.65857
4.42	7.67305
4.43	7.68127
4.44	7.68193
4.45	7.6589
4.46	7.63061
4.47	7.60265
4.48	7.63193
4.49	7.69542
4.5	7.63357
4.51	7.59508
4.52	7.54903
4.53	7.60528
4.54	7.6168
4.55	7.61449
4.56	7.6214
4.57	7.6191
4.58	7.58719
4.59	7.63522
4.6	7.60726
4.61	7.55396
4.62	7.57272
4.63	7.56975
4.64	7.56087
4.65	7.61778
4.66	7.62469
4.67	7.63489
4.68	7.61186
4.69	7.58883
4.7	7.60956
4.71	7.63752
4.72	7.55199
4.73	7.51449
4.74	7.60133
4.75	7.57535
4.76	7.59147
4.77	7.59278
4.78	7.54673
4.79	7.55561
4.8	7.60429
4.81	7.58225
4.82	7.55956
4.83	7.52798
4.84	7.56745
4.85	7.52699
4.86	7.54278
4.87	7.59804
4.88	7.57436
4.89	7.51975
4.9	7.50429
4.91	7.57107
4.92	7.54377
4.93	7.50035
4.94	7.51515
4.95	7.50528
4.96	7.51186
4.97	7.49442
4.98	7.53324
4.99	7.51975
5	7.57436
5.01	7.56515
5.02	7.50002
5.03	7.49311
5.04	7.50758
5.05	7.50758
5.06	7.55824
5.07	7.53192
5.08	7.56482
5.09	7.49344
5.1	7.51712
5.11	7.57272
5.12	7.50331
5.13	7.50692
5.14	7.44311
5.15	7.44837
5.16	7.46252
5.17	7.47995
5.18	7.49311
5.19	7.47567
5.2	7.49146
5.21	7.47238
5.22	7.5066
5.23	7.44409
5.24	7.43488
5.25	7.48456
5.26	7.46515
5.27	7.46811
5.28	7.48061
5.29	7.48982
5.3	7.45429
5.31	7.48521
5.32	7.47107
5.33	7.551
5.34	7.42172
5.35	7.38422
5.36	7.41712
5.37	7.43883
5.38	7.41745
5.39	7.47304
5.4	7.46712
5.41	7.46284
5.42	7.47238
5.43	7.47765
5.44	7.41646
5.45	7.43982
5.46	7.40857
5.47	7.42732
5.48	7.44113
5.49	7.42534
5.5	7.43521
5.51	7.40593
5.52	7.41909
5.53	7.40001
5.54	7.41712
5.55	7.39607
5.56	7.37567
5.57	7.40067
5.58	7.38093
5.59	7.41284
5.6	7.42896
5.61	7.4135
5.62	7.38291
5.63	7.39113
5.64	7.43587
5.65	7.38982
5.66	7.35955
5.67	7.44146
5.68	7.4487
5.69	7.4135
5.7	7.41054
5.71	7.42699
5.72	7.37074
5.73	7.32172
5.74	7.38258
5.75	7.38357
5.76	7.36547
5.77	7.35889
5.78	7.39837
5.79	7.40396
5.8	7.33521
5.81	7.34014
5.82	7.33225
5.83	7.34508
5.84	7.36153
5.85	7.40626
5.86	7.40462
5.87	7.36087
5.88	7.35593
5.89	7.30198
5.9	7.36909
5.91	7.33916
5.92	7.36482
5.93	7.36218
5.94	7.37896
5.95	7.32567
5.96	7.37534
5.97	7.36876
5.98	7.35626
5.99	7.30495
6	7.34574
6.01	7.27863
6.02	7.29343
6.03	7.37107
6.04	7.32172
6.05	7.28291
6.06	7.2704
6.07	7.29804
6.08	7.32238
6.09	7.3681
6.1	7.33685
6.11	7.35297
6.12	7.33916
6.13	7.32172
6.14	7.30198
6.15	7.32337
6.16	7.33225
6.17	7.31909
6.18	7.31416
6.19	7.26975
6.2	7.29277
6.21	7.28258
6.22	7.28916
6.23	7.27271
6.24	7.27369
6.25	7.32567
6.26	7.33027
6.27	7.2931
6.28	7.27172
6.29	7.28258
6.3	7.2635
6.31	7.25889
6.32	7.24146
6.33	7.26087
6.34	7.24869
6.35	7.28159
6.36	7.251
6.37	7.32271
6.38	7.35001
6.39	7.28948
6.4	7.28225
6.41	7.24935
6.42	7.23521
6.43	7.23159
6.44	7.19277
6.45	7.27567
6.46	7.28817
6.47	7.22238
6.48	7.22172
6.49	7.27863
6.5	7.26744
6.51	7.19573
6.52	7.29277
6.53	7.23915
6.54	7.26514
6.55	7.27402
6.56	7.26415
6.57	7.23225
6.58	7.19475
6.59	7.21382
6.6	7.20889
6.61	7.21054
6.62	7.24869
6.63	7.20988
6.64	7.21415
6.65	7.19014
6.66	7.18521
6.67	7.21547
6.68	7.17303
6.69	7.21942
6.7	7.22007
6.71	7.25231
6.72	7.22468
6.73	7.14178
6.74	7.17139
6.75	7.1533
6.76	7.20132
6.77	7.19606
6.78	7.18718
6.79	7.15198
6.8	7.16547
6.81	7.1227
6.82	7.21646
6.83	7.24672
6.84	7.19639
6.85	7.16415
6.86	7.20132
6.87	7.18751
6.88	7.19113
6.89	7.13948
6.9	7.09639
6.91	7.11481
6.92	7.16284
6.93	7.17007
6.94	7.18455
6.95	7.22007
6.96	7.18455
6.97	7.15067
6.98	7.1931
6.99	7.14244
7	7.14441
7.01	7.1829
7.02	7.1533
7.03	7.1556
7.04	7.1556
7.05	7.16481
7.06	7.17106
7.07	7.13488
7.08	7.12501
7.09	7.15067
7.1	7.13751
7.11	7.14803
7.12	7.15856
7.13	7.12632
7.14	7.14211
7.15	7.1556
7.16	7.09836
7.17	7.14968
7.18	7.18849
7.19	7.17139
7.2	7.12237
7.21	7.13027
7.22	7.11119
7.23	7.10658
7.24	7.09112
7.25	7.12237
7.26	7.11119
7.27	7.1658
7.28	7.14902
7.29	7.12106
7.3	7.09507
7.31	7.08093
7.32	7.14672
7.33	7.09672
7.34	7.10494
7.35	7.14441
7.36	7.08915
7.37	7.09606
7.38	7.10987
7.39	7.07172
7.4	7.0431
7.41	7.08718
7.42	7.11678
7.43	7.08685
7.44	7.12632
7.45	7.07106
7.46	7.06711
7.47	7.06382
7.48	7.10955
7.49	7.13224
7.5	7.1102
7.51	7.1227
7.52	7.09178
7.53	7.10658
7.54	7.09014
7.55	7.06645
7.56	7.12073
7.57	7.09408
7.58	7.08948
7.59	7.09277
7.6	7.05724
7.61	7.04211
7.62	7.07895
7.63	7.14968
7.64	7.10922
7.65	7.01579
7.66	7.03915
7.67	7.05099
7.68	7.05
7.69	7.10099
7.7	7.11941
7.71	7.07106
7.72	7.02665
7.73	7.06053
7.74	7.06579
7.75	7.07007
7.76	7.06053
7.77	7.08191
7.78	7.08191
7.79	7.02533
7.8	7.10231
7.81	7.02336
7.82	7.01415
7.83	7.06612
7.84	7.03783
7.85	7.06283
7.86	7.05132
7.87	7.03093
7.88	7.05099
7.89	7.04014
7.9	7.04803
7.91	7.07237
7.92	7.02895
7.93	7.05658
7.94	6.9977
7.95	7.0602
7.96	7.04573
7.97	7.04244
7.98	6.99178
7.99	7.01908
8	7.11678
8.01	7.06415
8.02	7.07632
8.03	7.01579
8.04	7.02204
8.05	7.03356
8.06	6.99342
8.07	7.00592
8.08	6.98915
8.09	7.07961
8.1	7.05527
8.11	7.02994
8.12	7.02007
8.13	6.97599
8.14	7.02961
8.15	7.04079
8.16	6.99573
8.17	6.98059
8.18	6.95099
8.19	6.98158
8.2	6.9931
8.21	7.01283
8.22	7.02994
8.23	7.04244
8.24	7.00066
8.25	7.02665
8.26	6.97434
8.27	7.02994
8.28	6.97073
8.29	6.95362
8.3	6.93191
8.31	7.02435
8.32	7.01152
8.33	7.03553
8.34	6.98816
8.35	6.95987
8.36	7.02336
8.37	6.97007
8.38	7.02599
8.39	7.01185
8.4	6.96744
8.41	6.92533
8.42	6.94441
8.43	6.98915
8.44	7.01086
8.45	6.95658
8.46	6.92599
8.47	6.92994
8.48	6.97007
8.49	6.97862
8.5	6.93816
8.51	6.95362
8.52	6.95855
8.53	6.94605
8.54	6.98454
8.55	6.92072
8.56	7.00494
8.57	6.95033
8.58	6.97698
8.59	6.95198
8.6	6.92632
8.61	6.97994
8.62	6.96513
8.63	6.92204
8.64	6.9579
8.65	6.95165
8.66	6.93553
8.67	6.89243
8.68	6.94408
8.69	6.97731
8.7	6.95494
8.71	6.9454
8.72	6.93684
8.73	6.94573
8.74	6.98092
8.75	6.93783
8.76	6.93323
8.77	6.90461
8.78	6.88289
8.79	6.88783
8.8	6.94342
8.81	6.9125
8.82	6.93717
8.83	6.92072
8.84	6.9329
8.85	6.88158
8.86	6.91283
8.87	6.90559
8.88	6.9329
8.89	6.91119
8.9	6.94638
8.91	6.95625
8.92	6.97303
8.93	7.00658
8.94	6.89671
8.95	6.87204
8.96	6.90428
8.97	6.91941
8.98	6.91645
8.99	6.91974
9	6.90822
9.01	6.92697
9.02	6.94474
9.03	6.89474
9.04	6.92237
9.05	6.99375
9.06	6.87632
9.07	6.92829
9.08	6.95395
9.09	6.89112
9.1	6.89638
9.11	6.90954
9.12	6.89901
9.13	6.925
9.14	6.85493
9.15	6.88388
9.16	6.87434
9.17	6.89441
9.18	6.9329
9.19	6.90526
9.2	6.9079
9.21	6.89145
9.22	6.89836
9.23	6.8875
9.24	6.94638
9.25	6.89572
9.26	6.90724
9.27	6.86349
9.28	6.92105
9.29	6.93454
9.3	6.89507
9.31	6.85789
9.32	6.85263
9.33	6.88026
9.34	6.88388
9.35	6.92237
9.36	6.88355
9.37	6.91809
9.38	6.89145
9.39	6.86085
9.4	6.86414
9.41	6.89507
9.42	6.83651
9.43	6.88322
9.44	6.89408
9.45	6.85724
9.46	6.83322
9.47	6.80888
9.48	6.80131
9.49	6.85263
9.5	6.83092
9.51	6.84671
9.52	6.85428
9.53	6.84013
9.54	6.90888
9.55	6.88388
9.56	6.82927
9.57	6.84704
9.58	6.86776
9.59	6.86941
9.6	6.89605
9.61	6.89671
9.62	6.8296
9.63	6.85033
9.64	6.8546
9.65	6.83783
9.66	6.84079
9.67	6.83224
9.68	6.85658
9.69	6.85592
9.7	6.81447
9.71	6.85
9.72	6.85724
9.73	6.80526
9.74	6.83092
9.75	6.84737
9.76	6.81612
9.77	6.82335
9.78	6.84572
9.79	6.87632
9.8	6.81447
9.81	6.77697
9.82	6.80033
9.83	6.85789
9.84	6.90165
9.85	6.88355
9.86	6.85625
9.87	6.87303
9.88	6.81743
9.89	6.775
9.9	6.82204
9.91	6.82105
9.92	6.83849
9.93	6.87105
9.94	6.8421
9.95	6.78717
9.96	6.82072
9.97	6.79079
9.98	6.78289
9.99	6.87566
10	6.82631
10.01	6.87763
10.02	6.83158
10.03	6.82171
10.04	6.80329
10.05	6.78322
10.06	6.83092
10.07	6.88618
10.08	6.81513
10.09	6.79177
10.1	6.80592
10.11	6.82105
10.12	6.80164
10.13	6.77993
10.14	6.74539
10.15	6.81085
10.16	6.84539
10.17	6.81546
10.18	6.83816
10.19	6.84474
10.2	6.84605
10.21	6.8546
10.22	6.84309
10.23	6.77204
10.24	6.78684
10.25	6.80658
10.26	6.80526
10.27	6.7671
10.28	6.78816
10.29	6.80131
10.3	6.77434
10.31	6.84737
10.32	6.8227
10.33	6.81842
10.34	6.77894
10.35	6.82302
10.36	6.76381
10.37	6.73651
10.38	6.83191
10.39	6.79539
10.4	6.78487
10.41	6.81414
10.42	6.79967
10.43	6.79145
10.44	6.80493
10.45	6.79243
10.46	6.75362
10.47	6.75197
10.48	6.75296
10.49	6.7671
10.5	6.78684
10.51	6.77434
10.52	6.76151
10.53	6.77039
10.54	6.77171
10.55	6.76348
10.56	6.79342
10.57	6.78059
10.58	6.75592
10.59	6.82335
10.6	6.8
10.61	6.77105
10.62	6.77664
10.63	6.78388
10.64	6.72171
10.65	6.75855
10.66	6.77566
10.67	6.80329
10.68	6.78289
10.69	6.7796
10.7	6.77894
10.71	6.75855
10.72	6.78026
10.73	6.70855
10.74	6.71579
10.75	6.8023
10.76	6.7546
10.77	6.7421
10.78	6.73552
10.79	6.69407
10.8	6.71217
10.81	6.79046
10.82	6.80329
10.83	6.80197
10.84	6.82434
10.85	6.73914
10.86	6.71414
10.87	6.79967
10.88	6.73783
10.89	6.70986
10.9	6.74079
10.91	6.75065
10.92	6.73585
10.93	6.73618
10.94	6.76447
10.95	6.77631
10.96	6.77993
10.97	6.77631
10.98	6.73585
10.99	6.72664
11	6.71579
11.01	6.76546
11.02	6.75197
11.03	6.74835
11.04	6.7625
11.05	6.74309
11.06	6.7671
11.07	6.72894
11.08	6.70526
11.09	6.76908
11.1	6.72138
11.11	6.70888
11.12	6.70756
11.13	6.76381
11.14	6.71348
11.15	6.7319
11.16	6.78026
11.17	6.77237
11.18	6.79276
11.19	6.69539
11.2	6.72335
11.21	6.725
11.22	6.70855
11.23	6.72302
11.24	6.68618
11.25	6.72796
11.26	6.72204
11.27	6.74539
11.28	6.75723
11.29	6.74144
11.3	6.70164
11.31	6.68782
11.32	6.69473
11.33	6.72236
11.34	6.78223
11.35	6.72993
11.36	6.65427
11.37	6.70953
11.38	6.68585
11.39	6.71085
11.4	6.7194
11.41	6.73684
11.42	6.66743
11.43	6.66842
11.44	6.71809
11.45	6.68388
11.46	6.70986
11.47	6.73585
11.48	6.74835
11.49	6.71579
11.5	6.68947
11.51	6.70493
11.52	6.76513
11.53	6.70065
11.54	6.71809
11.55	6.7023
11.56	6.74934
11.57	6.76283
11.58	6.69539
11.59	6.67861
11.6	6.67368
11.61	6.69407
11.62	6.70855
11.63	6.71414
11.64	6.72532
11.65	6.68947
11.66	6.67105
11.67	6.72072
11.68	6.67467
11.69	6.64539
11.7	6.66578
11.71	6.64506
11.72	6.7319
11.73	6.69539
11.74	6.6944
11.75	6.63749
11.76	6.69671
11.77	6.73486
11.78	6.67927
11.79	6.68486
11.8	6.69407
11.81	6.72532
11.82	6.68848
11.83	6.68782
11.84	6.71743
11.85	6.71118
11.86	6.69407
11.87	6.67401
11.88	6.62828
11.89	6.70263
11.9	6.67598
11.91	6.6648
11.92	6.67927
11.93	6.6898
11.94	6.70756
11.95	6.69703
11.96	6.70986
11.97	6.68388
11.98	6.70986
11.99	6.64506
12	6.67631
12.01	6.62499
12.02	6.6648
12.03	6.70493
12.04	6.71414
12.05	6.63322
12.06	6.61973
12.07	6.66644
12.08	6.71776
12.09	6.66381
12.1	6.7148
12.11	6.66578
12.12	6.62664
12.13	6.62039
12.14	6.64309
12.15	6.69309
12.16	6.71743
12.17	6.71579
12.18	6.69703
12.19	6.6523
12.2	6.69046
12.21	6.66973
12.22	6.66809
12.23	6.65789
12.24	6.66019
12.25	6.64243
12.26	6.64572
12.27	6.6796
12.28	6.65986
12.29	6.62401
12.3	6.67072
12.31	6.70625
12.32	6.68223
12.33	6.67565
12.34	6.68092
12.35	6.62236
12.36	6.62499
12.37	6.68223
12.38	6.69342
12.39	6.62105
12.4	6.61447
12.41	6.69375
12.42	6.6671
12.43	6.71447
12.44	6.64078
12.45	6.64473
12.46	6.6444
12.47	6.6569
12.48	6.67006
12.49	6.59835
12.5	6.61677
12.51	6.69309
12.52	6.67565
12.53	6.62006
12.54	6.64934
12.55	6.63355
12.56	6.62927
12.57	6.67499
12.58	6.69539
12.59	6.65197
12.6	6.63223
12.61	6.63684
12.62	6.61907
12.63	6.64309
12.64	6.62532
12.65	6.63782
12.66	6.62466
12.67	6.63815
12.68	6.64473
12.69	6.64045
12.7	6.62302
12.71	6.62006
12.72	6.60394
12.73	6.60558
12.74	6.61776
12.75	6.64703
12.76	6.64506
12.77	6.63387
12.78	6.62598
12.79	6.66513
12.8	6.62664
12.81	6.59407
12.82	6.61315
12.83	6.61282
12.84	6.60262
12.85	6.6796
12.86	6.65624
12.87	6.65855
12.88	6.65295
12.89	6.6296
12.9	6.6273
12.91	6.65197
12.92	6.64901
12.93	6.5921
12.94	6.64572
12.95	6.64177
12.96	6.65328
12.97	6.63749
12.98	6.64374
12.99	6.64013
13	6.61677
13.01	6.6421
13.02	6.61776
13.03	6.62697
13.04	6.6296
13.05	6.59473
13.06	6.57368
13.07	6.60197
13.08	6.62006
13.09	6.61348
13.1	6.56644
13.11	6.63914
13.12	6.61776
13.13	6.58716
13.14	6.61677
13.15	6.62368
13.16	6.62137
13.17	6.66315
13.18	6.59473
13.19	6.60328
13.2	6.60657
13.21	6.59243
13.22	6.57697
13.23	6.63387
13.24	6.58552
13.25	6.59769
13.26	6.63124
13.27	6.58552
13.28	6.62894
13.29	6.62401
13.3	6.61249
13.31	6.58157
13.32	6.57039
13.33	6.55756
13.34	6.58124
13.35	6.6046
13.36	6.65592
13.37	6.56512
13.38	6.58914
13.39	6.64177
13.4	6.59341
13.41	6.56775
13.42	6.64243
13.43	6.6296
13.44	6.58848
13.45	6.61743
13.46	6.61809
13.47	6.61776
13.48	6.58486
13.49	6.63289
13.5	6.59637
13.51	6.62565
13.52	6.59407
13.53	6.5842
13.54	6.57368
13.55	6.59177
13.56	6.63749
13.57	6.62861
13.58	6.58881
13.59	6.62401
13.6	6.61183
13.61	6.57433
13.62	6.54012
13.63	6.61151
13.64	6.56085
13.65	6.55986
13.66	6.59637
13.67	6.57828
13.68	6.56447
13.69	6.5967
13.7	6.58519
13.71	6.59276
13.72	6.57368
13.73	6.58782
13.74	6.58387
