"BIO-KINE ASCII FILE"
"_COMMENT"	"MOS-500 Spectrometer"
"_COMMENT"	"Kinetics measurement"
"_COMMENT"	"Y Unit : Volt,  X Unit : s"
"_COMMENT"	"Excitation wavelength : 380 nm"
"_COMMENT"	"Fentes bandwidth =  1 nm"
"_COMMENT"	"HV= 1000V"
"_COMMENT"	"Timebase  1 =  .01 s   5001 pts"
"_SFM"	"SFM-400 /S  Advanced mode"
"_SFM"	"Ratio : S1: 2.5, S2: 0, S3: 0, S4: 1"
"_SFM"	"Content : S1: , S2: , S3: , S4:"
"_SFM"	"Concentration : S1: , S2: , S3: , S4:"
"_SFM"	"Total volume : 209 µl  Flow : 3.5 mL/s"
"_SFM"	"Acquisition start :  10 ms before stop"
"_SFM"	"cuve=FC-15, s1=10 ml , s2=10 ml , s3=10 ml , s4=1.9 ml"
"_UNITX"	"s"
"_UNITY"	"Volt"
"_DELTAX"	0
"_DATA"
1e-300	2.29131
0.01	2.50644
0.02	2.80481
0.03	2.891
0.04	2.89264
0.05	2.95613
0.06	2.97258
0.07	2.94659
0.08	2.97093
0.09	3.00449
0.1	3.00317
0.11	2.99955
0.12	3.02126
0.13	3.01962
0.14	3.02686
0.15	3.04034
0.16	3.03311
0.17	3.0433
0.18	3.02488
0.19	3.0285
0.2	3.0489
0.21	3.0364
0.22	3.05416
0.23	3.02784
0.24	3.05021
0.25	3.03344
0.26	3.07028
0.27	3.04265
0.28	3.05646
0.29	3.05679
0.3	3.06567
0.31	3.05416
0.32	3.01666
0.33	3.0239
0.34	3.02784
0.35	3.0637
0.36	3.07817
0.37	3.05613
0.38	3.05909
0.39	3.03146
0.4	3.04955
0.41	3.05548
0.42	3.05581
0.43	3.02686
0.44	3.07028
0.45	3.0739
0.46	3.05778
0.47	3.08508
0.48	3.06831
0.49	3.05909
0.5	3.06008
0.51	3.07883
0.52	3.04923
0.53	3.06732
0.54	3.07916
0.55	3.03212
0.56	3.06567
0.57	3.066
0.58	3.03837
0.59	3.04067
0.6	3.08574
0.61	3.05548
0.62	3.05712
0.63	3.04955
0.64	3.02028
0.65	3.02916
0.66	3.07028
0.67	3.06206
0.68	3.04659
0.69	3.06271
0.7	3.07028
0.71	3.06403
0.72	3.06962
0.73	3.05252
0.74	3.08739
0.75	3.07949
0.76	3.05581
0.77	3.02192
0.78	3.05515
0.79	3.02751
0.8	3.01699
0.81	3.04429
0.82	3.06271
0.83	3.04429
0.84	3.04988
0.85	3.05317
0.86	3.02883
0.87	3.01633
0.88	3.06337
0.89	3.03804
0.9	3.02587
0.91	3.02061
0.92	3.02949
0.93	3.03837
0.94	3.02784
0.95	3.00811
0.96	3.03409
0.97	3.02587
0.98	3.04988
0.99	3.03442
1	3.05844
1.01	3.05613
1.02	3.03607
1.03	3.04067
1.04	3.00284
1.05	3.04955
1.06	3.05054
1.07	3.05778
1.08	3.03673
1.09	3.01205
1.1	3.05219
1.11	3.01732
1.12	3.03903
1.13	3.04462
1.14	3.06238
1.15	3.01205
1.16	3.02751
1.17	3.02719
1.18	3.016
1.19	3.01896
1.2	3.04758
1.21	3.06534
1.22	3.03969
1.23	3.00909
1.24	3.03048
1.25	3.0637
1.26	3.02028
1.27	3.02258
1.28	3.03705
1.29	3.04923
1.3	3.03212
1.31	3.01765
1.32	3.02291
1.33	3.03212
1.34	3.041
1.35	3.04429
1.36	3.03376
1.37	2.98442
1.38	3.00942
1.39	3.02982
1.4	3.01666
1.41	3.02094
1.42	3.0308
1.43	3.00284
1.44	2.99824
1.45	3.01436
1.46	3.02094
1.47	3.00613
1.48	2.99166
1.49	3.00646
1.5	3.03541
1.51	3.03508
1.52	3.0614
1.53	3.01896
1.54	3.01041
1.55	3.01238
1.56	3.04791
1.57	3.01238
1.58	2.99955
1.59	3.02061
1.6	3.03146
1.61	3.02291
1.62	3.06074
1.63	3.05449
1.64	3.00745
1.65	3.016
1.66	3.01896
1.67	3.02258
1.68	2.98771
1.69	3.01271
1.7	2.9864
1.71	2.99692
1.72	3.02061
1.73	3.00547
1.74	3.00482
1.75	2.97028
1.76	2.99363
1.77	2.99561
1.78	3.01403
1.79	3.00383
1.8	3.02751
1.81	3.02159
1.82	3.03311
1.83	3.00844
1.84	3.03311
1.85	3.04199
1.86	3.02192
1.87	3.02159
1.88	2.98903
1.89	3.02225
1.9	3.03113
1.91	2.98804
1.92	2.96962
1.93	3.02455
1.94	3.02028
1.95	3.04462
1.96	3.06271
1.97	3.05877
1.98	3.04034
1.99	2.98607
2	3.01567
2.01	3.04495
2.02	3.02521
2.03	3.03771
2.04	3.0387
2.05	3.04067
2.06	2.99758
2.07	3.02028
2.08	3.00975
2.09	2.99034
2.1	2.98804
2.11	3.016
2.12	3.01238
2.13	2.99429
2.14	3.01567
2.15	3.01172
2.16	3.01238
2.17	3.00054
2.18	3.01666
2.19	3.02521
2.2	2.99429
2.21	2.99001
2.22	2.99034
2.23	2.97258
2.24	2.9933
2.25	3.00646
2.26	3.01633
2.27	3.00186
2.28	2.99462
2.29	2.99528
2.3	3.03245
2.31	2.99955
2.32	2.99593
2.33	2.98113
2.34	3.0058
2.35	3.01041
2.36	2.98936
2.37	3.0387
2.38	2.98311
2.39	2.98541
2.4	2.98475
2.41	3.016
2.42	2.97587
2.43	2.9785
2.44	2.9637
2.45	3.00646
2.46	2.9989
2.47	3.02225
2.48	2.99396
2.49	2.97686
2.5	3.01403
2.51	3.016
2.52	2.99561
2.53	2.96271
2.54	3.00153
2.55	3.00712
2.56	3.01337
2.57	3.00449
2.58	3.02291
2.59	2.99495
2.6	2.99067
2.61	3.00778
2.62	2.991
2.63	3.02061
2.64	3.00153
2.65	3.0058
2.66	2.98179
2.67	2.99462
2.68	3.01008
2.69	3.00811
2.7	3.02719
2.71	2.99626
2.72	3.01074
2.73	3.07357
2.74	3.00876
2.75	3.03508
2.76	3.00186
2.77	2.97389
2.78	2.98212
2.79	2.97061
2.8	2.99955
2.81	2.9808
2.82	2.98837
2.83	3.00811
2.84	2.99659
2.85	3.00778
2.86	3.02291
2.87	3.01008
2.88	2.99824
2.89	2.97061
2.9	3.00811
2.91	3.04495
2.92	2.99199
2.93	2.98541
2.94	3.00087
2.95	2.98113
2.96	3.00284
2.97	2.9762
2.98	2.99528
2.99	2.99034
3	3.0035
3.01	3.00087
3.02	2.99297
3.03	2.96041
3.04	2.99922
3.05	2.98475
3.06	2.98409
3.07	2.99166
3.08	3.0114
3.09	2.96962
3.1	2.96929
3.11	3.00942
3.12	2.99857
3.13	3.02357
3.14	2.9637
3.15	2.98804
3.16	3.00482
3.17	2.98146
3.18	2.99067
3.19	3.00975
3.2	2.98343
3.21	2.98311
3.22	2.9808
3.23	2.98541
3.24	2.9989
3.25	2.94034
3.26	2.98475
3.27	2.98442
3.28	2.99495
3.29	3.00383
3.3	3.02916
3.31	3.03015
3.32	3.01337
3.33	2.99758
3.34	2.97159
3.35	2.99659
3.36	3.00975
3.37	2.98278
3.38	2.99922
3.39	3.0489
3.4	3.0262
3.41	2.97521
3.42	2.96107
3.43	2.98179
3.44	2.99593
3.45	3.00844
3.46	2.97784
3.47	2.99561
3.48	2.96567
3.49	2.93771
3.5	2.97258
3.51	2.99561
3.52	2.99922
3.53	2.97389
3.54	2.98278
3.55	2.97324
3.56	2.97357
3.57	2.97061
3.58	3.00547
3.59	2.99692
3.6	3.00021
3.61	2.98343
3.62	2.97192
3.63	2.96797
3.64	3.00778
3.65	2.99725
3.66	3.00219
3.67	2.98475
3.68	2.96633
3.69	2.98475
3.7	2.97916
3.71	2.98771
3.72	2.94626
3.73	2.9331
3.74	2.99824
3.75	2.94034
3.76	2.95087
3.77	2.94199
3.78	2.97488
3.79	2.97357
3.8	2.99067
3.81	2.99363
3.82	2.97883
3.83	2.9887
3.84	3.00909
3.85	2.99199
3.86	2.97357
3.87	2.9387
3.88	3.00186
3.89	2.95547
3.9	2.98903
3.91	2.99626
3.92	3.00317
3.93	2.99133
3.94	2.98409
3.95	2.96403
3.96	2.97291
3.97	2.96567
3.98	2.96995
3.99	2.97949
4	2.97225
4.01	2.97357
4.02	2.97883
4.03	2.95449
4.04	2.98475
4.05	2.99297
4.06	3.00087
4.07	2.95383
4.08	2.95876
4.09	2.96929
4.1	2.96337
4.11	2.96172
4.12	2.96962
4.13	2.97291
4.14	2.96962
4.15	2.93409
4.16	2.97192
4.17	2.97817
4.18	2.9637
4.19	2.95383
4.2	2.98146
4.21	2.94988
4.22	2.93935
4.23	2.93672
4.24	2.95284
4.25	2.941
4.26	2.96962
4.27	2.95449
4.28	2.98343
4.29	2.9581
4.3	2.98146
4.31	2.99593
4.32	2.97784
4.33	2.94462
4.34	2.95087
4.35	2.93705
4.36	2.94166
4.37	2.94988
4.38	2.91962
4.39	2.94626
4.4	2.95087
4.41	2.96041
4.42	2.93409
4.43	2.93738
4.44	2.93343
4.45	2.97554
4.46	2.97422
4.47	2.94067
4.48	2.92949
4.49	2.9456
4.5	2.94824
4.51	2.94955
4.52	2.92455
4.53	2.91929
4.54	2.9762
4.55	2.98212
4.56	2.99626
4.57	2.95942
4.58	2.96896
4.59	2.95679
4.6	2.95613
4.61	2.9762
4.62	2.93804
4.63	2.93639
4.64	2.93475
4.65	2.93738
4.66	2.94363
4.67	2.96633
4.68	2.96863
4.69	2.94659
4.7	2.95317
4.71	2.92225
4.72	2.97455
4.73	2.95185
4.74	2.94429
4.75	2.96929
4.76	2.9808
4.77	2.98837
4.78	2.99034
4.79	2.95745
4.8	2.93968
4.81	2.95317
4.82	2.97093
4.83	2.99133
4.84	2.97949
4.85	2.94034
4.86	2.95712
4.87	2.95778
4.88	2.95185
4.89	2.94692
4.9	2.95712
4.91	2.95778
4.92	2.94231
4.93	2.93179
4.94	2.94067
4.95	2.97916
4.96	2.96403
4.97	2.9558
4.98	2.95449
4.99	2.95054
5	2.98837
5.01	3.00482
5.02	2.94231
5.03	2.96304
5.04	2.9512
5.05	2.94495
5.06	2.97455
5.07	2.96863
5.08	2.96863
5.09	2.98113
5.1	2.95449
5.11	2.96041
5.12	2.95778
5.13	2.95646
5.14	2.94988
5.15	2.95778
5.16	2.91172
5.17	2.9581
5.18	2.9433
5.19	2.95218
5.2	2.95416
5.21	2.9183
5.22	2.97389
5.23	2.97422
5.24	2.91666
5.25	2.94396
5.26	2.95153
5.27	2.92389
5.28	2.92587
5.29	2.93639
5.3	2.94199
5.31	2.95054
5.32	2.94528
5.33	2.93903
5.34	2.95054
5.35	2.94495
5.36	2.95185
5.37	2.96764
5.38	2.92291
5.39	2.95021
5.4	2.9262
5.41	2.92455
5.42	2.93606
5.43	2.9308
5.44	2.95153
5.45	2.94692
5.46	2.93475
5.47	2.92718
5.48	2.96107
5.49	2.98574
5.5	2.96304
5.51	2.97718
5.52	2.96534
5.53	2.96797
5.54	2.96699
5.55	2.93903
5.56	2.92916
5.57	2.92488
5.58	2.9433
5.59	2.96567
5.6	2.97949
5.61	2.94528
5.62	2.95514
5.63	2.9456
5.64	2.94166
5.65	2.94824
5.66	2.92356
5.67	2.94856
5.68	2.96205
5.69	2.92718
5.7	2.96633
5.71	2.94922
5.72	2.92751
5.73	2.90876
5.74	2.91962
5.75	2.91304
5.76	2.9262
5.77	2.93014
5.78	2.95646
5.79	2.9456
5.8	2.94824
5.81	2.93508
5.82	2.92685
5.83	2.93574
5.84	2.93837
5.85	2.9387
5.86	2.95514
5.87	2.97883
5.88	2.95218
5.89	2.93343
5.9	2.93574
5.91	2.93738
5.92	2.9206
5.93	2.92817
5.94	2.94396
5.95	2.96107
5.96	2.9512
5.97	2.93212
5.98	2.95449
5.99	2.90712
6	2.89363
6.01	2.91929
6.02	2.93804
6.03	2.93738
6.04	2.92784
6.05	2.94429
6.06	2.95251
6.07	2.91041
6.08	2.9581
6.09	2.93804
6.1	2.89001
6.11	2.9183
6.12	2.93113
6.13	2.94231
6.14	2.9433
6.15	2.95712
6.16	2.96107
6.17	2.95482
6.18	2.94166
6.19	2.9331
6.2	2.92422
6.21	2.94297
6.22	2.95317
6.23	2.94001
6.24	2.9285
6.25	2.94363
6.26	2.94824
6.27	2.92192
6.28	2.91468
6.29	2.93639
6.3	2.96107
6.31	2.92718
6.32	2.92521
6.33	2.94462
6.34	2.90481
6.35	2.90975
6.36	2.92949
6.37	2.9285
6.38	2.92554
6.39	2.93968
6.4	2.94199
6.41	2.93508
6.42	2.95975
6.43	2.93935
6.44	2.89626
6.45	2.89462
6.46	2.92225
6.47	2.95482
6.48	2.95021
6.49	2.94988
6.5	2.92751
6.51	2.93771
6.52	2.93903
6.53	2.93935
6.54	2.99034
6.55	2.93245
6.56	2.91863
6.57	2.90909
6.58	2.90876
6.59	2.93047
6.6	2.92784
6.61	2.92192
6.62	2.92817
6.63	2.92324
6.64	2.95185
6.65	2.966
6.66	2.91633
6.67	2.9683
6.68	2.92751
6.69	2.94791
6.7	2.94264
6.71	2.93771
6.72	2.91896
6.73	2.93442
6.74	2.9535
6.75	2.94429
6.76	2.94495
6.77	2.95218
6.78	2.93442
6.79	2.92685
6.8	2.92685
6.81	2.96139
6.82	2.916
6.83	2.9081
6.84	2.95482
6.85	2.93639
6.86	2.91501
6.87	2.93212
6.88	2.93376
6.89	2.89297
6.9	2.95679
6.91	2.916
6.92	2.91666
6.93	2.94133
6.94	2.941
6.95	2.9433
6.96	2.92258
6.97	2.94166
6.98	2.95975
6.99	2.90021
7	2.89001
7.01	2.94034
7.02	2.92488
7.03	2.91501
7.04	2.88869
7.05	2.90712
7.06	2.92981
7.07	2.93705
7.08	2.90942
7.09	2.93574
7.1	2.93837
7.11	2.92718
7.12	2.95054
7.13	2.91073
7.14	2.94363
7.15	2.91304
7.16	2.92455
7.17	2.93606
7.18	2.94495
7.19	2.91304
7.2	2.90317
7.21	2.9433
7.22	2.92093
7.23	2.90975
7.24	2.91073
7.25	2.90481
7.26	2.93968
7.27	2.91633
7.28	2.94429
7.29	2.92291
7.3	2.9512
7.31	2.93409
7.32	2.95021
7.33	2.92192
7.34	2.91271
7.35	2.91797
7.36	2.88212
7.37	2.90745
7.38	2.91962
7.39	2.89856
7.4	2.90876
7.41	2.916
7.42	2.90843
7.43	2.94264
7.44	2.93935
7.45	2.941
7.46	2.91534
7.47	2.91402
7.48	2.87817
7.49	2.90909
7.5	2.92291
7.51	2.90119
7.52	2.9285
7.53	2.91008
7.54	2.91238
7.55	2.90481
7.56	2.92916
7.57	2.93738
7.58	2.9081
7.59	2.92093
7.6	2.93146
7.61	2.94593
7.62	2.93837
7.63	2.88738
7.64	2.90777
7.65	2.89527
7.66	2.92949
7.67	2.94791
7.68	2.91008
7.69	2.90218
7.7	2.93606
7.71	2.93442
7.72	2.92422
7.73	2.94264
7.74	2.9081
7.75	2.89988
7.76	2.94363
7.77	2.93343
7.78	2.95054
7.79	2.91797
7.8	2.92916
7.81	2.93146
7.82	2.94034
7.83	2.92192
7.84	2.92521
7.85	2.90284
7.86	2.91172
7.87	2.86139
7.88	2.91337
7.89	2.92291
7.9	2.91435
7.91	2.90843
7.92	2.91666
7.93	2.92949
7.94	2.9206
7.95	2.95416
7.96	2.94001
7.97	2.90317
7.98	2.94034
7.99	2.916
8	2.8933
8.01	2.92652
8.02	2.8956
8.03	2.91633
8.04	2.93146
8.05	2.90646
8.06	2.92488
8.07	2.91534
8.08	2.9262
8.09	2.93442
8.1	2.91139
8.11	2.93113
8.12	2.96205
8.13	2.97061
8.14	2.91698
8.15	2.93935
8.16	2.90152
8.17	2.92488
8.18	2.94856
8.19	2.92718
8.2	2.89429
8.21	2.90284
8.22	2.9081
8.23	2.90777
8.24	2.93574
8.25	2.9581
8.26	2.8933
8.27	2.90514
8.28	2.91863
8.29	2.91172
8.3	2.93245
8.31	2.92652
8.32	2.93968
8.33	2.94659
8.34	2.94133
8.35	2.91501
8.36	2.91139
8.37	2.89034
8.38	2.89527
8.39	2.93343
8.4	2.92159
8.41	2.91337
8.42	2.9058
8.43	2.87225
8.44	2.92192
8.45	2.91337
8.46	2.93508
8.47	2.94462
8.48	2.91534
8.49	2.90777
8.5	2.88771
8.51	2.91534
8.52	2.916
8.53	2.91797
8.54	2.87883
8.55	2.91172
8.56	2.93903
8.57	2.91731
8.58	2.89856
8.59	2.90448
8.6	2.91468
8.61	2.91567
8.62	2.97061
8.63	2.94824
8.64	2.91468
8.65	2.91962
8.66	2.93146
8.67	2.90251
8.68	2.93771
8.69	2.90975
8.7	2.92159
8.71	2.91633
8.72	2.92916
8.73	2.91501
8.74	2.91172
8.75	2.93014
8.76	2.9535
8.77	2.92488
8.78	2.90942
8.79	2.91172
8.8	2.90054
8.81	2.94231
8.82	2.9512
8.83	2.90218
8.84	2.92521
8.85	2.92916
8.86	2.88869
8.87	2.91238
8.88	2.89001
8.89	2.90777
8.9	2.92027
8.91	2.89297
8.92	2.90021
8.93	2.89133
8.94	2.92324
8.95	2.91764
8.96	2.93376
8.97	2.93837
8.98	2.91041
8.99	2.91896
9	2.92422
9.01	2.91468
9.02	2.93672
9.03	2.93277
9.04	2.92949
9.05	2.92093
9.06	2.8956
9.07	2.89988
9.08	2.90646
9.09	2.92192
9.1	2.91633
9.11	2.93475
9.12	2.92949
9.13	2.92356
9.14	2.86764
9.15	2.91567
9.16	2.92817
9.17	2.8933
9.18	2.90021
9.19	2.92455
9.2	2.89955
9.21	2.87422
9.22	2.89034
9.23	2.91337
9.24	2.92225
9.25	2.89922
9.26	2.90218
9.27	2.89001
9.28	2.87323
9.29	2.89791
9.3	2.90448
9.31	2.91041
9.32	2.91501
9.33	2.91008
9.34	2.89856
9.35	2.90909
9.36	2.85218
9.37	2.90021
9.38	2.94692
9.39	2.93442
9.4	2.91435
9.41	2.90547
9.42	2.90021
9.43	2.88672
9.44	2.90251
9.45	2.91962
9.46	2.91567
9.47	2.91995
9.48	2.91468
9.49	2.91402
9.5	2.93837
9.51	2.91271
9.52	2.91041
9.53	2.90909
9.54	2.90383
9.55	2.89955
9.56	2.9081
9.57	2.87685
9.58	2.92126
9.59	2.93014
9.6	2.89429
9.61	2.8854
9.62	2.88639
9.63	2.90152
9.64	2.89725
9.65	2.89856
9.66	2.90843
9.67	2.91304
9.68	2.88935
9.69	2.90448
9.7	2.88376
9.71	2.8785
9.72	2.88804
9.73	2.89725
9.74	2.90975
9.75	2.90745
9.76	2.89198
9.77	2.89462
9.78	2.89955
9.79	2.89955
9.8	2.92291
9.81	2.87817
9.82	2.87093
9.83	2.90679
9.84	2.90843
9.85	2.91337
9.86	2.90054
9.87	2.89363
9.88	2.8831
9.89	2.91929
9.9	2.92685
9.91	2.93705
9.92	2.93442
9.93	2.93475
9.94	2.90284
9.95	2.9183
9.96	2.88804
9.97	2.89133
9.98	2.9081
9.99	2.90185
10	2.90054
10.01	2.88738
10.02	2.87587
10.03	2.90218
10.04	2.88968
10.05	2.92159
10.06	2.89593
10.07	2.88113
10.08	2.8831
10.09	2.91567
10.1	2.90646
10.11	2.90909
10.12	2.8729
10.13	2.91205
10.14	2.92488
10.15	2.90876
10.16	2.891
10.17	2.89527
10.18	2.87915
10.19	2.90481
10.2	2.89758
10.21	2.8558
10.22	2.87488
10.23	2.92455
10.24	2.93672
10.25	2.93245
10.26	2.86961
10.27	2.88573
10.28	2.91797
10.29	2.89922
10.3	2.91139
10.31	2.87883
10.32	2.90547
10.33	2.92389
10.34	2.88869
10.35	2.8535
10.36	2.86336
10.37	2.88573
10.38	2.85679
10.39	2.88804
10.4	2.91896
10.41	2.90152
10.42	2.89527
10.43	2.87027
10.44	2.90185
10.45	2.89198
10.46	2.90712
10.47	2.91008
10.48	2.90185
10.49	2.91139
10.5	2.90942
10.51	2.89166
10.52	2.8956
10.53	2.88738
10.54	2.8729
10.55	2.85942
10.56	2.88244
10.57	2.8808
10.58	2.91172
10.59	2.90383
10.6	2.89725
10.61	2.86665
10.62	2.8831
10.63	2.88672
10.64	2.84363
10.65	2.88606
10.66	2.89823
10.67	2.89494
10.68	2.89593
10.69	2.88146
10.7	2.88475
10.71	2.8729
10.72	2.87948
10.73	2.88902
10.74	2.91139
10.75	2.8808
10.76	2.88014
10.77	2.89133
10.78	2.88804
10.79	2.91337
10.8	2.866
10.81	2.86468
10.82	2.87258
10.83	2.90218
10.84	2.89001
10.85	2.89988
10.86	2.89692
10.87	2.91698
10.88	2.90613
10.89	2.89396
10.9	2.88409
10.91	2.90416
10.92	2.88771
10.93	2.91567
10.94	2.89889
10.95	2.9058
10.96	2.88212
10.97	2.88014
10.98	2.93541
10.99	2.89758
11	2.88968
11.01	2.8933
11.02	2.90481
11.03	2.90087
11.04	2.90547
11.05	2.88837
11.06	2.88869
11.07	2.91468
11.08	2.86534
11.09	2.90514
11.1	2.89758
11.11	2.91633
11.12	2.89823
11.13	2.88705
11.14	2.90712
11.15	2.86665
11.16	2.87356
11.17	2.88705
11.18	2.8785
11.19	2.86402
11.2	2.89791
11.21	2.87981
11.22	2.89001
11.23	2.89823
11.24	2.92949
11.25	2.90712
11.26	2.87685
11.27	2.88014
11.28	2.92751
11.29	2.91797
11.3	2.89856
11.31	2.90745
11.32	2.90416
11.33	2.88869
11.34	2.88343
11.35	2.866
11.36	2.89988
11.37	2.89462
11.38	2.89429
11.39	2.87126
11.4	2.86764
11.41	2.85711
11.42	2.86336
11.43	2.8785
11.44	2.87751
11.45	2.90745
11.46	2.89133
11.47	2.86369
11.48	2.87751
11.49	2.89922
11.5	2.89889
11.51	2.90646
11.52	2.89001
11.53	2.89823
11.54	2.86073
11.55	2.87587
11.56	2.87587
11.57	2.89922
11.58	2.91106
11.59	2.91402
11.6	2.94725
11.61	2.87981
11.62	2.88409
11.63	2.88902
11.64	2.89692
11.65	2.8558
11.66	2.87422
11.67	2.88277
11.68	2.86534
11.69	2.86402
11.7	2.86468
11.71	2.88113
11.72	2.86961
11.73	2.87784
11.74	2.87652
11.75	2.87685
11.76	2.8808
11.77	2.88705
11.78	2.8831
11.79	2.88935
11.8	2.88277
11.81	2.9058
11.82	2.85415
11.83	2.88376
11.84	2.89856
11.85	2.90317
11.86	2.88902
11.87	2.89198
11.88	2.89758
11.89	2.89659
11.9	2.90975
11.91	2.90284
11.92	2.89001
11.93	2.91534
11.94	2.8831
11.95	2.89067
11.96	2.91304
11.97	2.88672
11.98	2.85415
11.99	2.88869
12	2.88771
12.01	2.88277
12.02	2.89297
12.03	2.8933
12.04	2.88606
12.05	2.88902
12.06	2.90646
12.07	2.88672
12.08	2.89922
12.09	2.87948
12.1	2.85975
12.11	2.87225
12.12	2.89264
12.13	2.9206
12.14	2.89725
12.15	2.88639
12.16	2.90712
12.17	2.91238
12.18	2.87554
12.19	2.87784
12.2	2.91501
12.21	2.87159
12.22	2.85119
12.23	2.87652
12.24	2.87159
12.25	2.85777
12.26	2.9058
12.27	2.89922
12.28	2.87455
12.29	2.89823
12.3	2.9058
12.31	2.89166
12.32	2.86008
12.33	2.86534
12.34	2.88212
12.35	2.87093
12.36	2.87883
12.37	2.87587
12.38	2.8558
12.39	2.85646
12.4	2.8956
12.41	2.91106
12.42	2.9058
12.43	2.87817
12.44	2.89527
12.45	2.87192
12.46	2.87817
12.47	2.89527
12.48	2.88902
12.49	2.87323
12.5	2.8933
12.51	2.89462
12.52	2.85284
12.53	2.86205
12.54	2.87817
12.55	2.85218
12.56	2.85382
12.57	2.87225
12.58	2.9035
12.59	2.85086
12.6	2.87389
12.61	2.86271
12.62	2.89626
12.63	2.88442
12.64	2.89264
12.65	2.87389
12.66	2.88705
12.67	2.85547
12.68	2.88935
12.69	2.88047
12.7	2.866
12.71	2.89462
12.72	2.86994
12.73	2.8479
12.74	2.87159
12.75	2.86435
12.76	2.89001
12.77	2.8956
12.78	2.89725
12.79	2.86534
12.8	2.90054
12.81	2.91106
12.82	2.91435
12.83	2.89297
12.84	2.8854
12.85	2.86205
12.86	2.89593
12.87	2.90448
12.88	2.9035
12.89	2.92981
12.9	2.90152
12.91	2.9206
12.92	2.86238
12.93	2.8558
12.94	2.88277
12.95	2.91172
12.96	2.89396
12.97	2.89988
12.98	2.89462
12.99	2.92389
13	2.88771
13.01	2.88113
13.02	2.8785
13.03	2.87389
13.04	2.8683
13.05	2.89429
13.06	2.88376
13.07	2.88672
13.08	2.90054
13.09	2.88837
13.1	2.88869
13.11	2.87258
13.12	2.85547
13.13	2.86961
13.14	2.88113
13.15	2.90876
13.16	2.89264
13.17	2.90613
13.18	2.90383
13.19	2.86369
13.2	2.89429
13.21	2.85975
13.22	2.88277
13.23	2.85185
13.24	2.86205
13.25	2.88672
13.26	2.91534
13.27	2.88343
13.28	2.84659
13.29	2.86567
13.3	2.85415
13.31	2.87948
13.32	2.89396
13.33	2.90251
13.34	2.87718
13.35	2.84988
13.36	2.85843
13.37	2.85251
13.38	2.87883
13.39	2.89692
13.4	2.87389
13.41	2.85185
13.42	2.91139
13.43	2.89955
13.44	2.87225
13.45	2.87619
13.46	2.87619
13.47	2.8933
13.48	2.86731
13.49	2.89067
13.5	2.89856
13.51	2.90383
13.52	2.89297
13.53	2.88014
13.54	2.87323
13.55	2.87784
13.56	2.89823
13.57	2.88475
13.58	2.87126
13.59	2.86665
13.6	2.86633
13.61	2.87422
13.62	2.90679
13.63	2.88639
13.64	2.88212
13.65	2.88639
13.66	2.88475
13.67	2.85152
13.68	2.89166
13.69	2.87258
13.7	2.87521
13.71	2.89198
13.72	2.86106
13.73	2.89955
13.74	2.86731
13.75	2.86304
