"BIO-KINE ASCII FILE"
"_COMMENT"	"MOS-500 Spectrometer"
"_COMMENT"	"Kinetics measurement"
"_COMMENT"	"Y Unit : Volt,  X Unit : s"
"_COMMENT"	"Excitation wavelength : 380 nm"
"_COMMENT"	"Fentes bandwidth =  1 nm"
"_COMMENT"	"HV= 1000V"
"_COMMENT"	"Timebase  1 =  .01 s   5001 pts"
"_SFM"	"SFM-400 /S  Advanced mode"
"_SFM"	"Ratio : S1: 2.5, S2: 0, S3: 0, S4: 1"
"_SFM"	"Content : S1: , S2: , S3: , S4:"
"_SFM"	"Concentration : S1: , S2: , S3: , S4:"
"_SFM"	"Total volume : 209 µl  Flow : 3.5 mL/s"
"_SFM"	"Acquisition start :  10 ms before stop"
"_SFM"	"cuve=FC-15, s1=10 ml , s2=10 ml , s3=10 ml , s4=1.9 ml"
"_UNITX"	"s"
"_UNITY"	"Volt"
"_DELTAX"	0
"_DATA"
1e-300	7.82864
0.01	8.03029
0.02	8.20793
0.03	8.41024
0.04	8.4757
0.05	8.52043
0.06	8.59577
0.07	8.56813
0.08	8.59609
0.09	8.59938
0.1	8.62044
0.11	8.62471
0.12	8.59708
0.13	8.56649
0.14	8.63787
0.15	8.64873
0.16	8.63129
0.17	8.58721
0.18	8.60859
0.19	8.6655
0.2	8.61682
0.21	8.61287
0.22	8.63129
0.23	8.59544
0.24	8.63195
0.25	8.58096
0.26	8.56419
0.27	8.60267
0.28	8.65235
0.29	8.60859
0.3	8.58359
0.31	8.54445
0.32	8.61879
0.33	8.56188
0.34	8.58557
0.35	8.61813
0.36	8.62438
0.37	8.54642
0.38	8.62767
0.39	8.55629
0.4	8.5359
0.41	8.54971
0.42	8.57504
0.43	8.58952
0.44	8.49839
0.45	8.52043
0.46	8.60761
0.47	8.54445
0.48	8.52372
0.49	8.55004
0.5	8.54774
0.51	8.55695
0.52	8.55728
0.53	8.56945
0.54	8.59807
0.55	8.54576
0.56	8.50103
0.57	8.48622
0.58	8.50267
0.59	8.54675
0.6	8.453
0.61	8.49247
0.62	8.4576
0.63	8.50465
0.64	8.48491
0.65	8.50201
0.66	8.51418
0.67	8.52109
0.68	8.48886
0.69	8.47438
0.7	8.50136
0.71	8.45596
0.72	8.51912
0.73	8.44149
0.74	8.41912
0.75	8.41747
0.76	8.40958
0.77	8.45826
0.78	8.44971
0.79	8.44774
0.8	8.46385
0.81	8.42438
0.82	8.3951
0.83	8.44642
0.84	8.43458
0.85	8.40596
0.86	8.40004
0.87	8.40892
0.88	8.40727
0.89	8.39905
0.9	8.41517
0.91	8.39214
0.92	8.38885
0.93	8.38918
0.94	8.38688
0.95	8.40366
0.96	8.3553
0.97	8.40004
0.98	8.40267
0.99	8.38359
1	8.3553
1.01	8.4076
1.02	8.34773
1.03	8.34444
1.04	8.33721
1.05	8.38754
1.06	8.35859
1.07	8.29411
1.08	8.29675
1.09	8.34839
1.1	8.31582
1.11	8.33523
1.12	8.27405
1.13	8.30069
1.14	8.29543
1.15	8.27306
1.16	8.3451
1.17	8.32734
1.18	8.31385
1.19	8.30332
1.2	8.28589
1.21	8.31714
1.22	8.28359
1.23	8.2576
1.24	8.24905
1.25	8.24839
1.26	8.26023
1.27	8.2826
1.28	8.30069
1.29	8.26418
1.3	8.29543
1.31	8.24247
1.32	8.2247
1.33	8.15102
1.34	8.22141
1.35	8.22076
1.36	8.26451
1.37	8.2247
1.38	8.22306
1.39	8.2326
1.4	8.21451
1.41	8.18391
1.42	8.23194
1.43	8.20859
1.44	8.17766
1.45	8.19806
1.46	8.16615
1.47	8.18161
1.48	8.2474
1.49	8.22734
1.5	8.19576
1.51	8.20661
1.52	8.19115
1.53	8.17898
1.54	8.15661
1.55	8.2076
1.56	8.24181
1.57	8.21451
1.58	8.15562
1.59	8.15036
1.6	8.15168
1.61	8.1326
1.62	8.16352
1.63	8.18293
1.64	8.11023
1.65	8.15694
1.66	8.20859
1.67	8.12832
1.68	8.11911
1.69	8.0747
1.7	8.11714
1.71	8.10858
1.72	8.20365
1.73	8.14345
1.74	8.18852
1.75	8.13654
1.76	8.1122
1.77	8.08194
1.78	8.10825
1.79	8.12569
1.8	8.13983
1.81	8.06319
1.82	8.06056
1.83	8.08687
1.84	8.06286
1.85	8.0645
1.86	8.10727
1.87	8.03457
1.88	8.04707
1.89	8.06714
1.9	8.06483
1.91	8.08589
1.92	8.04246
1.93	8.07898
1.94	8.0599
1.95	8.04148
1.96	8.07766
1.97	8.06319
1.98	8.05825
1.99	8.02569
2	8.05431
2.01	8.05628
2.02	8.06385
2.03	8.07108
2.04	7.98523
2.05	8.0224
2.06	7.9974
2.07	8.02075
2.08	8.00496
2.09	8.00069
2.1	7.99608
2.11	7.99378
2.12	8.00661
2.13	8.00694
2.14	7.96154
2.15	7.97536
2.16	7.96121
2.17	7.92174
2.18	7.92174
2.19	7.91779
2.2	7.92601
2.21	7.94772
2.22	7.93983
2.23	7.98555
2.24	7.98161
2.25	7.99641
2.26	7.98128
2.27	7.94345
2.28	7.9872
2.29	8.00167
2.3	7.952
2.31	7.96582
2.32	7.94707
2.33	7.94082
2.34	7.95365
2.35	7.92305
2.36	7.91746
2.37	7.92799
2.38	7.95463
2.39	7.91746
2.4	7.90562
2.41	7.9349
2.42	7.94476
2.43	7.90858
2.44	7.87108
2.45	7.90068
2.46	7.90134
2.47	7.90035
2.48	7.90957
2.49	7.88884
2.5	7.91253
2.51	7.91647
2.52	7.87667
2.53	7.85035
2.54	7.89608
2.55	7.90924
2.56	7.86384
2.57	7.89707
2.58	7.86614
2.59	7.82733
2.6	7.81943
2.61	7.85068
2.62	7.81022
2.63	7.83029
2.64	7.87831
2.65	7.85595
2.66	7.83029
2.67	7.79805
2.68	7.83851
2.69	7.80858
2.7	7.89904
2.71	7.88226
2.72	7.83851
2.73	7.77634
2.74	7.7918
2.75	7.81384
2.76	7.85331
2.77	7.84706
2.78	7.7816
2.79	7.7816
2.8	7.81055
2.81	7.82437
2.82	7.82206
2.83	7.80923
2.84	7.76088
2.85	7.75529
2.86	7.80463
2.87	7.81187
2.88	7.75364
2.89	7.77108
2.9	7.76088
2.91	7.78522
2.92	7.76844
2.93	7.74147
2.94	7.75693
2.95	7.75035
2.96	7.72535
2.97	7.75561
2.98	7.74969
2.99	7.70627
3	7.72502
3.01	7.77042
3.02	7.76548
3.03	7.78621
3.04	7.75627
3.05	7.69903
3.06	7.75002
3.07	7.73127
3.08	7.70068
3.09	7.68785
3.1	7.67042
3.11	7.70397
3.12	7.71088
3.13	7.73489
3.14	7.74476
3.15	7.72798
3.16	7.69673
3.17	7.77075
3.18	7.70956
3.19	7.6816
3.2	7.71219
3.21	7.72042
3.22	7.71976
3.23	7.70857
3.24	7.72502
3.25	7.68292
3.26	7.66252
3.27	7.72502
3.28	7.70923
3.29	7.69772
3.3	7.72075
3.31	7.62436
3.32	7.63555
3.33	7.67765
3.34	7.64607
3.35	7.65594
3.36	7.66778
3.37	7.63094
3.38	7.66416
3.39	7.67634
3.4	7.64048
3.41	7.66186
3.42	7.57502
3.43	7.65495
3.44	7.6418
3.45	7.67107
3.46	7.66285
3.47	7.6362
3.48	7.62305
3.49	7.6339
3.5	7.5839
3.51	7.59969
3.52	7.59837
3.53	7.60989
3.54	7.63555
3.55	7.66153
3.56	7.66482
3.57	7.58028
3.58	7.58094
3.59	7.59311
3.6	7.63226
3.61	7.64147
3.62	7.61581
3.63	7.63423
3.64	7.59574
3.65	7.58916
3.66	7.57502
3.67	7.62962
3.68	7.5635
3.69	7.59081
3.7	7.58028
3.71	7.58291
3.72	7.56515
3.73	7.55429
3.74	7.55265
3.75	7.55396
3.76	7.55627
3.77	7.5464
3.78	7.52041
3.79	7.56021
3.8	7.5816
3.81	7.54443
3.82	7.5066
3.83	7.53456
3.84	7.52962
3.85	7.55298
3.86	7.5566
3.87	7.51449
3.88	7.54212
3.89	7.55396
3.9	7.50594
3.91	7.47995
3.92	7.54607
3.93	7.55627
3.94	7.54771
3.95	7.55429
3.96	7.51285
3.97	7.53028
3.98	7.52074
3.99	7.52535
4	7.48587
4.01	7.50199
4.02	7.51021
4.03	7.48587
4.04	7.49377
4.05	7.4783
4.06	7.44541
4.07	7.46844
4.08	7.45298
4.09	7.50956
4.1	7.50067
4.11	7.43291
4.12	7.426
4.13	7.4408
4.14	7.49574
4.15	7.45298
4.16	7.46219
4.17	7.46679
4.18	7.45659
4.19	7.42107
4.2	7.44705
4.21	7.40034
4.22	7.43883
4.23	7.46778
4.24	7.46811
4.25	7.40429
4.26	7.42962
4.27	7.41942
4.28	7.39146
4.29	7.40166
4.3	7.40363
4.31	7.42501
4.32	7.43291
4.33	7.4237
4.34	7.3964
4.35	7.38686
4.36	7.42765
4.37	7.4135
4.38	7.35692
4.39	7.38686
4.4	7.39936
4.41	7.45232
4.42	7.39014
4.43	7.39738
4.44	7.40001
4.45	7.42962
4.46	7.39047
4.47	7.43159
4.48	7.43686
4.49	7.36909
4.5	7.3908
4.51	7.35264
4.52	7.38422
4.53	7.44015
4.54	7.39574
4.55	7.39672
4.56	7.43455
4.57	7.38291
4.58	7.43587
4.59	7.35791
4.6	7.35495
4.61	7.36876
4.62	7.38357
4.63	7.35922
4.64	7.42501
4.65	7.40824
4.66	7.33817
4.67	7.30462
4.68	7.33981
4.69	7.39014
4.7	7.35231
4.71	7.37271
4.72	7.34968
4.73	7.2885
4.74	7.31547
4.75	7.32468
4.76	7.34113
4.77	7.36745
4.78	7.31547
4.79	7.32764
4.8	7.32402
4.81	7.37732
4.82	7.37041
4.83	7.31481
4.84	7.33356
4.85	7.31416
4.86	7.23027
4.87	7.3112
4.88	7.31317
4.89	7.34541
4.9	7.35988
4.91	7.32304
4.92	7.27435
4.93	7.31712
4.94	7.29573
4.95	7.2704
4.96	7.25165
4.97	7.32008
4.98	7.31383
4.99	7.27764
5	7.31054
5.01	7.31843
5.02	7.27764
5.03	7.23784
5.04	7.21514
5.05	7.26975
5.06	7.27501
5.07	7.28948
5.08	7.26646
5.09	7.23718
5.1	7.23817
5.11	7.25165
5.12	7.27106
5.13	7.29179
5.14	7.23422
5.15	7.27238
5.16	7.29804
5.17	7.23619
5.18	7.25001
5.19	7.24672
5.2	7.23554
5.21	7.24672
5.22	7.24442
5.23	7.23619
5.24	7.23521
5.25	7.25725
5.26	7.23718
5.27	7.22271
5.28	7.23159
5.29	7.21843
5.3	7.26843
5.31	7.20264
5.32	7.16448
5.33	7.18882
5.34	7.21481
5.35	7.19902
5.36	7.19277
5.37	7.2329
5.38	7.2431
5.39	7.20757
5.4	7.17468
5.41	7.12895
5.42	7.20757
5.43	7.22304
5.44	7.1783
5.45	7.23225
5.46	7.18553
5.47	7.21481
5.48	7.18422
5.49	7.18685
5.5	7.18488
5.51	7.25067
5.52	7.1829
5.53	7.20198
5.54	7.16448
5.55	7.19738
5.56	7.16678
5.57	7.20527
5.58	7.19409
5.59	7.14343
5.6	7.16843
5.61	7.20856
5.62	7.14277
5.63	7.18027
5.64	7.1783
5.65	7.14573
5.66	7.08981
5.67	7.12139
5.68	7.08816
5.69	7.11415
5.7	7.12994
5.71	7.14672
5.72	7.17073
5.73	7.1431
5.74	7.10165
5.75	7.16974
5.76	7.11382
5.77	7.13751
5.78	7.15659
5.79	7.13718
5.8	7.13257
5.81	7.15231
5.82	7.1658
5.83	7.13488
5.84	7.11086
5.85	7.15428
5.86	7.11382
5.87	7.11974
5.88	7.10297
5.89	7.12895
5.9	7.09803
5.91	7.10428
5.92	7.10066
5.93	7.09441
5.94	7.08553
5.95	7.09376
5.96	7.16415
5.97	7.12764
5.98	7.1158
5.99	7.11711
6	7.12534
6.01	7.12402
6.02	7.10527
6.03	7.07073
6.04	7.10461
6.05	7.07665
6.06	7.09145
6.07	7.10132
6.08	7.04474
6.09	7.03816
6.1	7.08948
6.11	7.07237
6.12	7.08389
6.13	7.06218
6.14	7.09474
6.15	7.12895
6.16	7.05856
6.17	7.07599
6.18	7.07599
6.19	7.04277
6.2	7.08487
6.21	7.05395
6.22	7.04869
6.23	6.98257
6.24	7.07007
6.25	7.02698
6.26	7.03191
6.27	7.00658
6.28	7.10132
6.29	7.07007
6.3	7.05922
6.31	7.03323
6.32	7.02698
6.33	7.0056
6.34	7.04836
6.35	7.01119
6.36	7.01448
6.37	7.03685
6.38	7.04244
6.39	7.05889
6.4	7.02007
6.41	7.00592
6.42	7.0056
6.43	7.00263
6.44	7.0056
6.45	7.05066
6.46	6.98586
6.47	6.9727
6.48	6.95165
6.49	6.98092
6.5	7.0329
6.51	7.05
6.52	7.03915
6.53	7.06053
6.54	6.9977
6.55	6.98092
6.56	7.02435
6.57	7.02204
6.58	6.98684
6.59	6.99375
6.6	7.00263
6.61	7.01448
6.62	7.02599
6.63	6.96744
6.64	6.99441
6.65	7.00856
6.66	6.98388
6.67	6.9977
6.68	7.03816
6.69	7.06974
6.7	7.00987
6.71	6.95954
6.72	6.9579
6.73	6.99013
6.74	6.98454
6.75	6.9625
6.76	6.98717
6.77	6.91119
6.78	6.9704
6.79	7.03027
6.8	6.99441
6.81	7
6.82	6.98125
6.83	7.00494
6.84	6.97632
6.85	7.00691
6.86	6.95823
6.87	6.96777
6.88	6.93553
6.89	6.97763
6.9	6.97237
6.91	6.99671
6.92	6.96316
6.93	6.93158
6.94	6.93553
6.95	6.91842
6.96	6.94836
6.97	6.94178
6.98	7.05033
6.99	6.97599
7	6.95987
7.01	6.92796
7.02	6.95263
7.03	6.96448
7.04	6.96612
7.05	6.88125
7.06	6.9148
7.07	6.92204
7.08	6.95954
7.09	6.94737
7.1	6.9829
7.11	6.95198
7.12	6.95987
7.13	6.96612
7.14	6.95165
7.15	6.9352
7.16	6.90066
7.17	6.9398
7.18	6.8977
7.19	6.94178
7.2	6.93849
7.21	6.97698
7.22	6.93388
7.23	6.91086
7.24	6.93849
7.25	6.93257
7.26	6.91941
7.27	6.93684
7.28	6.93454
7.29	6.87467
7.3	6.89178
7.31	6.90724
7.32	6.91546
7.33	6.94934
7.34	6.91447
7.35	6.96579
7.36	6.95263
7.37	6.97566
7.38	6.88651
7.39	6.90197
7.4	6.91744
7.41	6.89375
7.42	6.91283
7.43	6.91053
7.44	6.90625
7.45	6.85493
7.46	6.78256
7.47	6.88947
7.48	6.85625
7.49	6.84506
7.5	6.91842
7.51	6.88191
7.52	6.86349
7.53	6.87401
7.54	6.88388
7.55	6.90691
7.56	6.86349
7.57	6.88651
7.58	6.86447
7.59	6.86645
7.6	6.8477
7.61	6.8227
7.62	6.90099
7.63	6.89375
7.64	6.85395
7.65	6.88553
7.66	6.87368
7.67	6.87039
7.68	6.86612
7.69	6.88191
7.7	6.8375
7.71	6.8171
7.72	6.80691
7.73	6.83783
7.74	6.81085
7.75	6.83355
7.76	6.83454
7.77	6.84539
7.78	6.88059
7.79	6.83125
7.8	6.83421
7.81	6.79145
7.82	6.79605
7.83	6.78947
7.84	6.81941
7.85	6.81217
7.86	6.87401
7.87	6.82434
7.88	6.80888
7.89	6.83158
7.9	6.86151
7.91	6.81349
7.92	6.79671
7.93	6.83125
7.94	6.84342
7.95	6.84276
7.96	6.8852
7.97	6.84572
7.98	6.85
7.99	6.87763
8	6.84013
8.01	6.80855
8.02	6.86283
8.03	6.86118
8.04	6.84145
8.05	6.86875
8.06	6.81447
8.07	6.80822
8.08	6.78026
8.09	6.84342
8.1	6.88026
8.11	6.80164
8.12	6.82599
8.13	6.80888
8.14	6.80954
8.15	6.78684
8.16	6.81414
8.17	6.79441
8.18	6.83947
8.19	6.80559
8.2	6.79901
8.21	6.74934
8.22	6.80559
8.23	6.77237
8.24	6.79704
8.25	6.76743
8.26	6.74408
8.27	6.78717
8.28	6.77401
8.29	6.81842
8.3	6.78125
8.31	6.77302
8.32	6.75427
8.33	6.79473
8.34	6.80329
8.35	6.76348
8.36	6.77401
8.37	6.79802
8.38	6.7694
8.39	6.80822
8.4	6.78585
8.41	6.76776
8.42	6.8102
8.43	6.75987
8.44	6.74868
8.45	6.76875
8.46	6.7875
8.47	6.74835
8.48	6.74079
8.49	6.75493
8.5	6.7273
8.51	6.77697
8.52	6.75822
8.53	6.75592
8.54	6.79046
8.55	6.77927
8.56	6.70756
8.57	6.7398
8.58	6.76513
8.59	6.775
8.6	6.77368
8.61	6.76447
8.62	6.69243
8.63	6.74868
8.64	6.775
8.65	6.73585
8.66	6.76875
8.67	6.79506
8.68	6.76809
8.69	6.72796
8.7	6.70197
8.71	6.79342
8.72	6.73848
8.73	6.76776
8.74	6.77302
8.75	6.77039
8.76	6.78783
8.77	6.79704
8.78	6.76217
8.79	6.69111
8.8	6.72171
8.81	6.74342
8.82	6.68947
8.83	6.74309
8.84	6.74572
8.85	6.70888
8.86	6.75954
8.87	6.72861
8.88	6.75033
8.89	6.69868
8.9	6.71842
8.91	6.74111
8.92	6.72105
8.93	6.71052
8.94	6.76546
8.95	6.75098
8.96	6.74901
8.97	6.75394
8.98	6.72894
8.99	6.66644
9	6.70098
9.01	6.70921
9.02	6.68519
9.03	6.7375
9.04	6.78388
9.05	6.7671
9.06	6.76052
9.07	6.75394
9.08	6.70953
9.09	6.7171
9.1	6.68453
9.11	6.70953
9.12	6.67796
9.13	6.70986
9.14	6.72631
9.15	6.68782
9.16	6.71546
9.17	6.68585
9.18	6.68914
9.19	6.7069
9.2	6.69802
9.21	6.66249
9.22	6.6944
9.23	6.64309
9.24	6.69111
9.25	6.6921
9.26	6.70855
9.27	6.72236
9.28	6.63914
9.29	6.67565
9.3	6.72269
9.31	6.66249
9.32	6.66776
9.33	6.6898
9.34	6.70131
9.35	6.70723
9.36	6.70526
9.37	6.70625
9.38	6.65822
9.39	6.71644
9.4	6.68749
9.41	6.67598
9.42	6.66973
9.43	6.6648
9.44	6.69769
9.45	6.68486
9.46	6.67434
9.47	6.65657
9.48	6.68914
9.49	6.6273
9.5	6.66447
9.51	6.68421
9.52	6.69342
9.53	6.71644
9.54	6.66677
9.55	6.66677
9.56	6.6898
9.57	6.69375
9.58	6.67138
9.59	6.63947
9.6	6.6569
9.61	6.66414
9.62	6.6694
9.63	6.6523
9.64	6.64638
9.65	6.68947
9.66	6.68092
9.67	6.63322
9.68	6.66447
9.69	6.68026
9.7	6.6148
9.71	6.64506
9.72	6.65723
9.73	6.68355
9.74	6.66644
9.75	6.65723
9.76	6.62598
9.77	6.66151
9.78	6.60723
9.79	6.60164
9.8	6.58815
9.81	6.62203
9.82	6.66348
9.83	6.6319
9.84	6.62039
9.85	6.61414
9.86	6.62269
9.87	6.65789
9.88	6.6342
9.89	6.60986
9.9	6.62697
9.91	6.64966
9.92	6.61743
9.93	6.64638
9.94	6.62532
9.95	6.64374
9.96	6.64999
9.97	6.64572
9.98	6.62368
9.99	6.66282
10	6.61282
10.01	6.56841
10.02	6.65065
10.03	6.58322
10.04	6.60394
10.05	6.63881
10.06	6.57335
10.07	6.58618
10.08	6.55953
10.09	6.63914
10.1	6.64078
10.11	6.59572
10.12	6.59144
10.13	6.62039
10.14	6.61216
10.15	6.68322
10.16	6.66907
10.17	6.64045
10.18	6.62368
10.19	6.63223
10.2	6.56085
10.21	6.57039
10.22	6.57762
10.23	6.60657
10.24	6.59407
10.25	6.56249
10.26	6.61907
10.27	6.58585
10.28	6.57335
10.29	6.61282
10.3	6.61677
10.31	6.63355
10.32	6.66743
10.33	6.5967
10.34	6.60361
10.35	6.62236
10.36	6.62927
10.37	6.62434
10.38	6.64638
10.39	6.63914
10.4	6.56611
10.41	6.59637
10.42	6.53453
10.43	6.58749
10.44	6.57203
10.45	6.5592
10.46	6.57631
10.47	6.61019
10.48	6.58091
10.49	6.64736
10.5	6.60657
10.51	6.60098
10.52	6.61809
10.53	6.58256
10.54	6.59012
10.55	6.53848
10.56	6.56512
10.57	6.5796
10.58	6.53617
10.59	6.54703
10.6	6.5842
10.61	6.60591
10.62	6.53946
10.63	6.58453
10.64	6.58223
10.65	6.57631
10.66	6.5421
10.67	6.57236
10.68	6.61611
10.69	6.55394
10.7	6.53157
10.71	6.56315
10.72	6.61545
10.73	6.58782
10.74	6.53453
10.75	6.54341
10.76	6.59111
10.77	6.59703
10.78	6.59111
10.79	6.52071
10.8	6.5796
10.81	6.53585
10.82	6.53256
10.83	6.54736
10.84	6.56743
10.85	6.56085
10.86	6.54933
10.87	6.52992
10.88	6.51808
10.89	6.5296
10.9	6.5319
10.91	6.53321
10.92	6.56677
10.93	6.59999
10.94	6.51446
10.95	6.52236
10.96	6.53815
10.97	6.55723
10.98	6.56315
10.99	6.52762
11	6.58157
11.01	6.5467
11.02	6.5365
11.03	6.57006
11.04	6.57269
11.05	6.55624
11.06	6.51479
11.07	6.50492
11.08	6.60493
11.09	6.58716
11.1	6.53223
11.11	6.52466
11.12	6.50262
11.13	6.55789
11.14	6.57631
11.15	6.52828
11.16	6.57104
11.17	6.57466
11.18	6.55427
11.19	6.54539
11.2	6.48617
11.21	6.49078
11.22	6.54012
11.23	6.51216
11.24	6.48683
11.25	6.52335
11.26	6.53585
11.27	6.52861
11.28	6.54177
11.29	6.58157
11.3	6.5319
11.31	6.51052
11.32	6.53979
11.33	6.51381
11.34	6.49078
11.35	6.50756
11.36	6.52894
11.37	6.54473
11.38	6.51216
11.39	6.50821
11.4	6.50131
11.41	6.49834
11.42	6.52795
11.43	6.51085
11.44	6.55558
11.45	6.55098
11.46	6.53782
11.47	6.5171
11.48	6.5444
11.49	6.49341
11.5	6.50723
11.51	6.50591
11.52	6.49834
11.53	6.5046
11.54	6.52762
11.55	6.51216
11.56	6.48584
11.57	6.48321
11.58	6.53354
11.59	6.52203
11.6	6.50098
11.61	6.50854
11.62	6.47302
11.63	6.46973
11.64	6.55558
11.65	6.55065
11.66	6.54144
11.67	6.5092
11.68	6.51381
11.69	6.49506
11.7	6.56644
11.71	6.51611
11.72	6.48124
11.73	6.48354
11.74	6.54473
11.75	6.53716
11.76	6.51282
11.77	6.50065
11.78	6.46578
11.79	6.51117
11.8	6.48256
11.81	6.42137
11.82	6.46973
11.83	6.50756
11.84	6.48716
11.85	6.44242
11.86	6.46644
11.87	6.47334
11.88	6.49177
11.89	6.5194
11.9	6.53058
11.91	6.50492
11.92	6.47269
11.93	6.46051
11.94	6.52006
11.95	6.48256
11.96	6.47565
11.97	6.4592
11.98	6.47334
11.99	6.51578
12	6.5319
12.01	6.43749
12.02	6.50525
12.03	6.50525
12.04	6.46084
12.05	6.46742
12.06	6.46677
12.07	6.45361
12.08	6.48157
12.09	6.45657
12.1	6.43025
12.11	6.45854
12.12	6.46249
12.13	6.44078
12.14	6.44834
12.15	6.44604
12.16	6.49604
12.17	6.53091
12.18	6.48584
12.19	6.46051
12.2	6.49012
12.21	6.49769
12.22	6.5046
12.23	6.44473
12.24	6.47992
12.25	6.45788
12.26	6.44045
12.27	6.42038
12.28	6.51019
12.29	6.51282
12.3	6.53552
12.31	6.48025
12.32	6.43354
12.33	6.49275
12.34	6.42762
12.35	6.43354
12.36	6.48124
12.37	6.47005
12.38	6.47762
12.39	6.46216
12.4	6.44604
12.41	6.40657
12.42	6.42597
12.43	6.47992
12.44	6.45854
12.45	6.42104
12.46	6.47861
12.47	6.49078
12.48	6.45755
12.49	6.43058
12.5	6.48157
12.51	6.46874
12.52	6.41709
12.53	6.46479
12.54	6.46709
12.55	6.51413
12.56	6.4694
12.57	6.49506
12.58	6.44637
12.59	6.45262
12.6	6.48979
12.61	6.46019
12.62	6.47038
12.63	6.47729
12.64	6.50657
12.65	6.45854
12.66	6.48321
12.67	6.4365
12.68	6.46084
12.69	6.44045
12.7	6.47433
12.71	6.49242
12.72	6.4717
12.73	6.49012
12.74	6.52006
12.75	6.45163
12.76	6.47565
12.77	6.5092
12.78	6.4638
12.79	6.45065
12.8	6.39407
12.81	6.45525
12.82	6.50229
12.83	6.40657
12.84	6.44012
12.85	6.45657
12.86	6.45032
12.87	6.4217
12.88	6.41578
12.89	6.39176
12.9	6.4569
12.91	6.41907
12.92	6.42828
12.93	6.44144
12.94	6.46282
12.95	6.48716
12.96	6.48288
12.97	6.4865
12.98	6.45459
12.99	6.45723
13	6.46775
13.01	6.4717
13.02	6.44045
13.03	6.42367
13.04	6.45163
13.05	6.4069
13.06	6.37729
13.07	6.45426
13.08	6.39966
13.09	6.43584
13.1	6.40722
13.11	6.40163
13.12	6.41907
13.13	6.40558
13.14	6.4694
13.15	6.51085
13.16	6.43091
13.17	6.38518
13.18	6.49571
13.19	6.40393
13.2	6.42268
13.21	6.40196
13.22	6.43255
13.23	6.43222
13.24	6.40986
13.25	6.43157
13.26	6.43584
13.27	6.39275
13.28	6.4138
13.29	6.39275
13.3	6.4217
13.31	6.41249
13.32	6.3717
13.33	6.36479
13.34	6.41676
13.35	6.39966
13.36	6.40492
13.37	6.42301
13.38	6.40821
13.39	6.36117
13.4	6.42926
13.41	6.4513
13.42	6.45394
13.43	6.39834
13.44	6.41907
13.45	6.41742
13.46	6.40459
13.47	6.44045
13.48	6.36216
13.49	6.424
13.5	6.41315
13.51	6.4194
13.52	6.43486
13.53	6.43354
13.54	6.38387
13.55	6.35492
13.56	6.40887
13.57	6.41084
13.58	6.40393
13.59	6.44801
13.6	6.4365
13.61	6.41775
13.62	6.37268
13.63	6.40426
13.64	6.43091
13.65	6.39703
13.66	6.39472
13.67	6.40459
13.68	6.39209
13.69	6.40426
13.7	6.40064
13.71	6.39505
13.72	6.42828
13.73	6.45492
13.74	6.40558
13.75	6.36742
