"BIO-KINE ASCII FILE"
"_COMMENT"	"MOS-500 Spectrometer"
"_COMMENT"	"Kinetics measurement"
"_COMMENT"	"Y Unit : Volt,  X Unit : s"
"_COMMENT"	"Excitation wavelength : 380 nm"
"_COMMENT"	"Fentes bandwidth =  1 nm"
"_COMMENT"	"HV= 750V"
"_COMMENT"	"Timebase  1 =  .01 s   3001 pts"
"_SFM"	"SFM-400 /S  Advanced mode"
"_SFM"	"Ratio : S1: 2.5, S2: 0, S3: 0, S4: 1"
"_SFM"	"Content : S1: , S2: , S3: , S4:"
"_SFM"	"Concentration : S1: , S2: , S3: , S4:"
"_SFM"	"Total volume : 209 µl  Flow : 3.5 mL/s"
"_SFM"	"Acquisition start :  10 ms before stop"
"_SFM"	"cuve=FC-15, s1=10 ml , s2=10 ml , s3=10 ml , s4=1.9 ml"
"_UNITX"	"s"
"_UNITY"	"Volt"
"_DELTAX"	0
"_DATA"
1e-300	3.74695
0.01	4.37361
0.02	4.77724
0.03	4.78876
0.04	4.80257
0.05	4.79336
0.06	4.76639
0.07	4.77724
0.08	4.79533
0.09	4.78579
0.1	4.78777
0.11	4.79961
0.12	4.80323
0.13	4.79402
0.14	4.78744
0.15	4.77724
0.16	4.78579
0.17	4.77593
0.18	4.77954
0.19	4.78251
0.2	4.76474
0.21	4.76343
0.22	4.76244
0.23	4.75783
0.24	4.74533
0.25	4.77231
0.26	4.7506
0.27	4.75191
0.28	4.76047
0.29	4.76211
0.3	4.76112
0.31	4.7631
0.32	4.75224
0.33	4.7506
0.34	4.73875
0.35	4.74303
0.36	4.73349
0.37	4.72395
0.38	4.72132
0.39	4.71441
0.4	4.72362
0.41	4.72296
0.42	4.73316
0.43	4.71573
0.44	4.72395
0.45	4.72099
0.46	4.71244
0.47	4.695
0.48	4.71211
0.49	4.69566
0.5	4.7029
0.51	4.70816
0.52	4.70915
0.53	4.71013
0.54	4.69862
0.55	4.69665
0.56	4.68711
0.57	4.68546
0.58	4.69171
0.59	4.68941
0.6	4.67921
0.61	4.67823
0.62	4.68316
0.63	4.66671
0.64	4.67625
0.65	4.67165
0.66	4.66145
0.67	4.65092
0.68	4.6348
0.69	4.63513
0.7	4.64829
0.71	4.64369
0.72	4.63743
0.73	4.65092
0.74	4.63776
0.75	4.60717
0.76	4.61934
0.77	4.62592
0.78	4.61079
0.79	4.61901
0.8	4.62362
0.81	4.59632
0.82	4.59697
0.83	4.59171
0.84	4.60158
0.85	4.58645
0.86	4.57888
0.87	4.58941
0.88	4.58316
0.89	4.57526
0.9	4.57
0.91	4.57954
0.92	4.56934
0.93	4.56342
0.94	4.5598
0.95	4.55717
0.96	4.54467
0.97	4.54664
0.98	4.53316
0.99	4.53743
1	4.54533
1.01	4.54237
1.02	4.53579
1.03	4.53052
1.04	4.52822
1.05	4.51375
1.06	4.4996
1.07	4.50519
1.08	4.5144
1.09	4.50651
1.1	4.51046
1.11	4.49861
1.12	4.4973
1.13	4.49401
1.14	4.49993
1.15	4.49204
1.16	4.49796
1.17	4.50454
1.18	4.48809
1.19	4.46638
1.2	4.47131
1.21	4.46868
1.22	4.47263
1.23	4.45947
1.24	4.45026
1.25	4.46736
1.26	4.45026
1.27	4.45223
1.28	4.45059
1.29	4.44302
1.3	4.4269
1.31	4.43644
1.32	4.43677
1.33	4.42559
1.34	4.4348
1.35	4.43973
1.36	4.4223
1.37	4.4098
1.38	4.4121
1.39	4.40026
1.4	4.40223
1.41	4.41013
1.42	4.39894
1.43	4.39269
1.44	4.39795
1.45	4.38874
1.46	4.39269
1.47	4.39302
1.48	4.38019
1.49	4.38348
1.5	4.38874
1.51	4.38644
1.52	4.39203
1.53	4.37624
1.54	4.37328
1.55	4.38216
1.56	4.36276
1.57	4.38052
1.58	4.35453
1.59	4.35782
1.6	4.34039
1.61	4.33775
1.62	4.3496
1.63	4.33743
1.64	4.3315
1.65	4.33414
1.66	4.33479
1.67	4.32525
1.68	4.31802
1.69	4.31374
1.7	4.32065
1.71	4.31835
1.72	4.30979
1.73	4.3144
1.74	4.31473
1.75	4.29762
1.76	4.29006
1.77	4.28315
1.78	4.28677
1.79	4.29071
1.8	4.28084
1.81	4.28216
1.82	4.27657
1.83	4.26703
1.84	4.26571
1.85	4.26802
1.86	4.25519
1.87	4.24696
1.88	4.25157
1.89	4.244
1.9	4.23315
1.91	4.23512
1.92	4.23479
1.93	4.2315
1.94	4.24334
1.95	4.23973
1.96	4.22887
1.97	4.22887
1.98	4.23907
1.99	4.22097
2	4.21111
2.01	4.20486
2.02	4.20847
2.03	4.19499
2.04	4.20551
2.05	4.2065
2.06	4.19104
2.07	4.18742
2.08	4.20025
2.09	4.18479
2.1	4.1815
2.11	4.18874
2.12	4.1713
2.13	4.17591
2.14	4.16472
2.15	4.17196
2.16	4.17788
2.17	4.17953
2.18	4.16374
2.19	4.1667
2.2	4.16735
2.21	4.15847
2.22	4.15255
2.23	4.14071
2.24	4.14367
2.25	4.14202
2.26	4.13906
2.27	4.14499
2.28	4.14433
2.29	4.12952
2.3	4.13314
2.31	4.12492
2.32	4.11669
2.33	4.12196
2.34	4.11242
2.35	4.1065
2.36	4.10946
2.37	4.10584
2.38	4.10683
2.39	4.09202
2.4	4.08314
2.41	4.09465
2.42	4.07952
2.43	4.08511
2.44	4.08347
2.45	4.08215
2.46	4.08084
2.47	4.07064
2.48	4.05617
2.49	4.06406
2.5	4.05814
2.51	4.06505
2.52	4.0565
2.53	4.05025
2.54	4.04301
2.55	4.04761
2.56	4.03939
2.57	4.03676
2.58	4.02524
2.59	4.03478
2.6	4.02689
2.61	4.02163
2.62	4.02821
2.63	4.02821
2.64	4.03742
2.65	4.01965
2.66	4.01998
2.67	4.01209
2.68	3.99991
2.69	4.00353
2.7	4.00551
2.71	3.99334
2.72	3.99926
2.73	4.01702
2.74	3.99531
2.75	3.98445
2.76	3.99202
2.77	3.98412
2.78	3.98116
2.79	3.97426
2.8	3.97393
2.81	3.97261
2.82	3.95419
2.83	3.96143
2.84	3.95386
2.85	3.96735
2.86	3.96077
2.87	3.95452
2.88	3.95386
2.89	3.95057
2.9	3.94004
2.91	3.9407
2.92	3.94893
2.93	3.93182
2.94	3.93281
2.95	3.93445
2.96	3.92919
2.97	3.91537
2.98	3.92294
2.99	3.92886
3	3.93248
3.01	3.9259
3.02	3.92096
3.03	3.9111
3.04	3.91307
3.05	3.90912
3.06	3.91307
3.07	3.89925
3.08	3.90419
3.09	3.89695
3.1	3.88708
3.11	3.89498
3.12	3.89169
3.13	3.88708
3.14	3.89202
3.15	3.87787
3.16	3.86866
3.17	3.86438
3.18	3.86866
3.19	3.87228
3.2	3.87557
3.21	3.85945
3.22	3.86274
3.23	3.85123
3.24	3.85057
3.25	3.86208
3.26	3.86406
3.27	3.8555
3.28	3.83313
3.29	3.84169
3.3	3.84103
3.31	3.83576
3.32	3.82326
3.33	3.81701
3.34	3.82919
3.35	3.82195
3.36	3.82294
3.37	3.81701
3.38	3.81767
3.39	3.81438
3.4	3.80649
3.41	3.80517
3.42	3.79728
3.43	3.79234
3.44	3.8009
3.45	3.80287
3.46	3.79103
3.47	3.78708
3.48	3.79991
3.49	3.793
3.5	3.78313
3.51	3.77721
3.52	3.7782
3.53	3.78182
3.54	3.77063
3.55	3.76504
3.56	3.75188
3.57	3.76932
3.58	3.76603
3.59	3.75879
3.6	3.75188
3.61	3.75484
3.62	3.75714
3.63	3.75945
3.64	3.74991
3.65	3.74596
3.66	3.73313
3.67	3.73806
3.68	3.73905
3.69	3.73609
3.7	3.72523
3.71	3.72721
3.72	3.7203
3.73	3.71339
3.74	3.7055
3.75	3.71964
3.76	3.72852
3.77	3.72227
3.78	3.71734
3.79	3.71175
3.8	3.71602
3.81	3.70188
3.82	3.69596
3.83	3.69991
3.84	3.71076
3.85	3.68477
3.86	3.68083
3.87	3.68642
3.88	3.68247
3.89	3.68477
3.9	3.67392
3.91	3.67819
3.92	3.67589
3.93	3.67293
3.94	3.66273
3.95	3.66635
3.96	3.66405
3.97	3.66471
3.98	3.65911
3.99	3.65418
4	3.64859
4.01	3.64267
4.02	3.64003
4.03	3.63675
4.04	3.6305
4.05	3.62721
4.06	3.63115
4.07	3.63313
4.08	3.63346
4.09	3.62161
4.1	3.63642
4.11	3.62523
4.12	3.6249
4.13	3.63313
4.14	3.61503
4.15	3.62523
4.16	3.63214
4.17	3.60582
4.18	3.61174
4.19	3.60878
4.2	3.60517
4.21	3.60517
4.22	3.6022
4.23	3.58839
4.24	3.59464
4.25	3.5897
4.26	3.5851
4.27	3.57523
4.28	3.57885
4.29	3.58872
4.3	3.58477
4.31	3.58148
4.32	3.54924
4.33	3.56635
4.34	3.56635
4.35	3.56799
4.36	3.57457
4.37	3.57062
4.38	3.56503
4.39	3.57786
4.4	3.5726
4.41	3.54957
4.42	3.53937
4.43	3.55155
4.44	3.54332
4.45	3.55023
4.46	3.53904
4.47	3.55089
4.48	3.55451
4.49	3.55187
4.5	3.54464
4.51	3.53444
4.52	3.52786
4.53	3.54332
4.54	3.53214
4.55	3.52885
4.56	3.51865
4.57	3.50779
4.58	3.50911
4.59	3.51799
4.6	3.517
4.61	3.50154
4.62	3.50681
4.63	3.50615
4.64	3.50352
4.65	3.48411
4.66	3.49036
4.67	3.50056
4.68	3.50089
4.69	3.49102
4.7	3.48937
4.71	3.49496
4.72	3.48016
4.73	3.48246
4.74	3.49003
4.75	3.4851
4.76	3.47885
4.77	3.47885
4.78	3.47391
4.79	3.46799
4.8	3.48016
4.81	3.46437
4.82	3.45352
4.83	3.44398
4.84	3.4545
4.85	3.46075
4.86	3.45911
4.87	3.45549
4.88	3.44595
4.89	3.43871
4.9	3.45582
4.91	3.46141
4.92	3.44891
4.93	3.44759
4.94	3.44003
4.95	3.43082
4.96	3.43148
4.97	3.43542
4.98	3.42621
4.99	3.42555
5	3.42358
5.01	3.42555
5.02	3.42358
5.03	3.42753
5.04	3.42358
5.05	3.42226
5.06	3.41897
5.07	3.41832
5.08	3.41536
5.09	3.41108
5.1	3.40154
5.11	3.40549
5.12	3.40549
5.13	3.40351
5.14	3.40286
5.15	3.40944
5.16	3.39068
5.17	3.38476
5.18	3.39562
5.19	3.39496
5.2	3.39365
5.21	3.37654
5.22	3.38016
5.23	3.3772
5.24	3.37062
5.25	3.38082
5.26	3.37687
5.27	3.37193
5.28	3.36338
5.29	3.36437
5.3	3.36404
5.31	3.36207
5.32	3.36338
5.33	3.37193
5.34	3.36832
5.35	3.36009
5.36	3.34956
5.37	3.35713
5.38	3.35285
5.39	3.35812
5.4	3.35483
5.41	3.34233
5.42	3.34167
5.43	3.34299
5.44	3.32917
5.45	3.33147
5.46	3.33641
5.47	3.33443
5.48	3.33805
5.49	3.33213
5.5	3.33016
5.51	3.32851
5.52	3.32062
5.53	3.32522
5.54	3.32391
5.55	3.31272
5.56	3.31239
5.57	3.31996
5.58	3.31798
5.59	3.30779
5.6	3.31404
5.61	3.31206
5.62	3.31996
5.63	3.29923
5.64	3.29397
5.65	3.29627
5.66	3.30614
5.67	3.29923
5.68	3.3045
5.69	3.29233
5.7	3.28147
5.71	3.28344
5.72	3.28443
5.73	3.27522
5.74	3.27226
5.75	3.2818
5.76	3.2864
5.77	3.28838
5.78	3.27818
5.79	3.27259
5.8	3.2693
5.81	3.27719
5.82	3.27061
5.83	3.26075
5.84	3.26996
5.85	3.26108
5.86	3.26897
5.87	3.26963
5.88	3.27588
5.89	3.27127
5.9	3.26568
5.91	3.25384
5.92	3.25088
5.93	3.25318
5.94	3.25022
5.95	3.25186
5.96	3.25186
5.97	3.24627
5.98	3.2466
5.99	3.242
6	3.24529
6.01	3.23969
6.02	3.23936
6.03	3.23575
6.04	3.23706
6.05	3.22785
6.06	3.23213
6.07	3.22094
6.08	3.22851
6.09	3.21798
6.1	3.2193
6.11	3.21667
6.12	3.22653
6.13	3.21864
6.14	3.21305
6.15	3.21798
6.16	3.21074
6.17	3.20351
6.18	3.19759
6.19	3.20153
6.2	3.20713
6.21	3.20811
6.22	3.20417
6.23	3.21173
6.24	3.20581
6.25	3.21272
6.26	3.1966
6.27	3.19134
6.28	3.18443
6.29	3.19298
6.3	3.19693
6.31	3.18574
6.32	3.19331
6.33	3.17982
6.34	3.19199
6.35	3.19495
6.36	3.18081
6.37	3.17916
6.38	3.18311
6.39	3.18377
6.4	3.17324
6.41	3.17028
6.42	3.18048
6.43	3.1864
6.44	3.17127
6.45	3.16699
6.46	3.15778
6.47	3.16041
6.48	3.16272
6.49	3.16008
6.5	3.1568
6.51	3.15943
6.52	3.16403
6.53	3.14495
6.54	3.1591
6.55	3.1489
6.56	3.13936
6.57	3.14627
6.58	3.13837
6.59	3.1387
6.6	3.14133
6.61	3.1364
6.62	3.14528
6.63	3.1341
6.64	3.13739
6.65	3.13804
6.66	3.13311
6.67	3.13081
6.68	3.12949
6.69	3.12883
6.7	3.11995
6.71	3.12982
6.72	3.12686
6.73	3.12522
6.74	3.12554
6.75	3.12028
6.76	3.13311
6.77	3.11897
6.78	3.12686
6.79	3.12489
6.8	3.11173
6.81	3.11271
6.82	3.11864
6.83	3.11107
6.84	3.12291
6.85	3.1216
6.86	3.11502
6.87	3.09989
6.88	3.09133
6.89	3.10416
6.9	3.10219
6.91	3.09824
6.92	3.09528
6.93	3.10285
6.94	3.10087
6.95	3.10712
6.96	3.09462
6.97	3.09199
6.98	3.1114
6.99	3.10318
7	3.0966
7.01	3.08936
7.02	3.07949
7.03	3.091
7.04	3.09857
7.05	3.09528
7.06	3.07554
7.07	3.06633
7.08	3.08179
7.09	3.08081
7.1	3.07883
7.11	3.08081
7.12	3.07587
7.13	3.07456
7.14	3.08212
7.15	3.07423
7.16	3.07127
7.17	3.05844
7.18	3.07258
7.19	3.07719
7.2	3.05745
7.21	3.05942
7.22	3.05613
7.23	3.06567
7.24	3.07686
7.25	3.05712
7.26	3.06074
7.27	3.06041
7.28	3.04561
7.29	3.04857
7.3	3.04265
7.31	3.03936
7.32	3.05416
7.33	3.05909
7.34	3.05548
7.35	3.03837
7.36	3.03804
7.37	3.04133
7.38	3.04034
7.39	3.0433
7.4	3.04429
7.41	3.04067
7.42	3.03442
7.43	3.03048
7.44	3.04396
7.45	3.02587
7.46	3.02521
7.47	3.02949
7.48	3.02126
7.49	3.03015
7.5	3.03607
7.51	3.03344
7.52	3.01896
7.53	3.02324
7.54	3.01172
7.55	3.01238
7.56	3.02159
7.57	3.02784
7.58	3.01501
7.59	3.00712
7.6	3.01469
7.61	3.01205
7.62	3.01074
7.63	3.01107
7.64	3.01008
7.65	3.00778
7.66	3.0035
7.67	3.0035
7.68	3.0114
7.69	3.01107
7.7	3.00778
7.71	3.00449
7.72	3.00284
7.73	2.99725
7.74	2.9933
7.75	2.991
7.76	2.99791
7.77	2.99363
7.78	2.99725
7.79	2.99265
7.8	2.99001
7.81	2.99001
7.82	2.99199
7.83	2.98804
7.84	2.98014
7.85	2.98245
7.86	2.98212
7.87	2.98179
7.88	2.99133
7.89	2.98311
7.9	2.97488
7.91	2.97982
7.92	2.97225
7.93	2.98607
7.94	2.97718
7.95	2.96699
7.96	2.97784
7.97	2.98245
7.98	2.97718
7.99	2.97192
8	2.97751
8.01	2.97554
8.02	2.97389
8.03	2.97093
8.04	2.96666
8.05	2.96435
8.06	2.97126
8.07	2.96534
8.08	2.95514
8.09	2.95514
8.1	2.96797
8.11	2.96666
8.12	2.96633
8.13	2.96008
8.14	2.9535
8.15	2.95613
8.16	2.95087
8.17	2.95054
8.18	2.95646
8.19	2.95745
8.2	2.95778
8.21	2.94824
8.22	2.94297
8.23	2.94495
8.24	2.94758
8.25	2.94231
8.26	2.94988
8.27	2.95185
8.28	2.95218
8.29	2.94725
8.3	2.9433
8.31	2.93771
8.32	2.9456
8.33	2.93705
8.34	2.94034
8.35	2.94264
8.36	2.94363
8.37	2.9331
8.38	2.94001
8.39	2.93606
8.4	2.93014
8.41	2.93014
8.42	2.93738
8.43	2.94396
8.44	2.93672
8.45	2.92718
8.46	2.91435
8.47	2.92027
8.48	2.91929
8.49	2.91698
8.5	2.91863
8.51	2.92521
8.52	2.91468
8.53	2.91764
8.54	2.91073
8.55	2.91567
8.56	2.9058
8.57	2.90909
8.58	2.91073
8.59	2.92126
8.6	2.91698
8.61	2.92192
8.62	2.90514
8.63	2.91073
8.64	2.90975
8.65	2.90613
8.66	2.90975
8.67	2.90777
8.68	2.91238
8.69	2.90284
8.7	2.90218
8.71	2.91304
8.72	2.90087
8.73	2.8933
8.74	2.91073
8.75	2.90087
8.76	2.90909
8.77	2.90218
8.78	2.91106
8.79	2.9058
8.8	2.90876
8.81	2.89593
8.82	2.89692
8.83	2.89659
8.84	2.89396
8.85	2.89264
8.86	2.89593
8.87	2.89692
8.88	2.88968
8.89	2.89429
8.9	2.88508
8.91	2.8808
8.92	2.88935
8.93	2.89198
8.94	2.89166
8.95	2.88047
8.96	2.88047
8.97	2.88508
8.98	2.88475
8.99	2.88277
9	2.88047
9.01	2.88047
9.02	2.88442
9.03	2.87488
9.04	2.8683
9.05	2.87521
9.06	2.87521
9.07	2.87981
9.08	2.86797
9.09	2.86961
9.1	2.87619
9.11	2.86863
9.12	2.87685
9.13	2.86468
9.14	2.87619
9.15	2.86698
9.16	2.8683
9.17	2.87422
9.18	2.87258
9.19	2.86106
9.2	2.86336
9.21	2.87027
9.22	2.87521
9.23	2.86271
9.24	2.8581
9.25	2.85843
9.26	2.85646
9.27	2.85942
9.28	2.866
9.29	2.87027
9.3	2.86139
9.31	2.85251
9.32	2.86238
9.33	2.85448
9.34	2.85481
9.35	2.85152
9.36	2.85251
9.37	2.86896
9.38	2.85054
9.39	2.84922
9.4	2.85514
9.41	2.86008
9.42	2.85777
9.43	2.84494
9.44	2.84396
9.45	2.84856
9.46	2.83968
9.47	2.84132
9.48	2.84264
9.49	2.83738
9.5	2.84494
9.51	2.84198
9.52	2.8331
9.53	2.83343
9.54	2.83902
9.55	2.83014
9.56	2.83376
9.57	2.83606
9.58	2.84067
9.59	2.84165
9.6	2.8354
9.61	2.82784
9.62	2.8354
9.63	2.82948
9.64	2.8354
9.65	2.83771
9.66	2.83507
9.67	2.84297
9.68	2.83738
9.69	2.83113
9.7	2.82685
9.71	2.82159
9.72	2.82784
9.73	2.83211
9.74	2.8331
9.75	2.83211
9.76	2.82882
9.77	2.82192
9.78	2.82619
9.79	2.82784
9.8	2.81369
9.81	2.83376
9.82	2.82981
9.83	2.82619
9.84	2.81797
9.85	2.81896
9.86	2.82192
9.87	2.81271
9.88	2.80942
9.89	2.80876
9.9	2.81369
9.91	2.81369
9.92	2.81534
9.93	2.82027
9.94	2.81863
9.95	2.81797
9.96	2.81073
9.97	2.81632
9.98	2.82093
9.99	2.81139
10	2.80777
10.01	2.81303
10.02	2.80876
10.03	2.81271
10.04	2.80876
10.05	2.81599
10.06	2.79823
10.07	2.81238
10.08	2.80678
10.09	2.79659
10.1	2.7979
10.11	2.81797
10.12	2.81073
10.13	2.7979
10.14	2.80218
10.15	2.80251
10.16	2.79363
10.17	2.80086
10.18	2.80514
10.19	2.8002
10.2	2.80777
10.21	2.79922
10.22	2.8058
10.23	2.79955
10.24	2.7933
10.25	2.79659
10.26	2.79297
10.27	2.79626
10.28	2.79461
10.29	2.79461
10.3	2.78409
10.31	2.78902
10.32	2.79099
10.33	2.79001
10.34	2.79494
10.35	2.78803
10.36	2.78738
10.37	2.78836
10.38	2.78014
10.39	2.78244
10.4	2.78836
10.41	2.78639
10.42	2.79198
10.43	2.78836
10.44	2.78441
10.45	2.78244
10.46	2.78047
10.47	2.77553
10.48	2.78343
10.49	2.78573
10.5	2.78573
10.51	2.78047
10.52	2.7854
10.53	2.78902
10.54	2.77882
10.55	2.78145
10.56	2.78836
10.57	2.7831
10.58	2.77685
10.59	2.77915
10.6	2.77323
10.61	2.76698
10.62	2.77981
10.63	2.77257
10.64	2.7683
10.65	2.76599
10.66	2.78244
10.67	2.76928
10.68	2.7808
10.69	2.77652
10.7	2.76895
10.71	2.76632
10.72	2.76501
10.73	2.77882
10.74	2.76468
10.75	2.76172
10.76	2.76501
10.77	2.77323
10.78	2.76928
10.79	2.7706
10.8	2.7706
10.81	2.76797
10.82	2.76468
10.83	2.77126
10.84	2.76468
10.85	2.7604
10.86	2.76435
10.87	2.76106
10.88	2.76764
10.89	2.75645
10.9	2.76172
10.91	2.76862
10.92	2.76961
10.93	2.7604
10.94	2.76172
10.95	2.76566
10.96	2.76139
10.97	2.76928
10.98	2.76139
10.99	2.7479
11	2.7627
11.01	2.75645
11.02	2.75744
11.03	2.75547
11.04	2.76369
11.05	2.75843
11.06	2.7604
11.07	2.76632
11.08	2.76237
11.09	2.75382
11.1	2.75612
11.11	2.7479
11.12	2.74922
11.13	2.75678
11.14	2.75777
11.15	2.75678
11.16	2.74658
11.17	2.74428
11.18	2.73737
11.19	2.73573
11.2	2.74066
11.21	2.74329
11.22	2.74001
11.23	2.74362
11.24	2.74033
11.25	2.73935
11.26	2.73376
11.27	2.73968
11.28	2.73737
11.29	2.73836
11.3	2.75645
11.31	2.74757
11.32	2.74099
11.33	2.74757
11.34	2.74922
11.35	2.73968
11.36	2.73935
11.37	2.74132
11.38	2.74428
11.39	2.74658
11.4	2.73902
11.41	2.74099
11.42	2.74362
11.43	2.73639
11.44	2.73968
11.45	2.73507
11.46	2.73014
11.47	2.73376
11.48	2.73211
11.49	2.7377
11.5	2.74001
11.51	2.73145
11.52	2.71632
11.53	2.73376
11.54	2.73343
11.55	2.71961
11.56	2.73145
11.57	2.73507
11.58	2.73441
11.59	2.73277
11.6	2.72849
11.61	2.73606
11.62	2.73474
11.63	2.72849
11.64	2.72685
11.65	2.73112
11.66	2.72027
11.67	2.71994
11.68	2.71237
11.69	2.71566
11.7	2.72882
11.71	2.72422
11.72	2.72816
11.73	2.72718
11.74	2.72257
11.75	2.7206
11.76	2.72553
11.77	2.72553
11.78	2.72619
11.79	2.72323
11.8	2.71336
11.81	2.71369
11.82	2.71928
11.83	2.73178
11.84	2.72783
11.85	2.72487
11.86	2.71698
11.87	2.7025
11.88	2.71764
11.89	2.71862
11.9	2.72981
11.91	2.71369
11.92	2.73145
11.93	2.7275
11.94	2.72093
11.95	2.72685
11.96	2.72125
11.97	2.70777
11.98	2.71731
11.99	2.71369
12	2.72422
12.01	2.73079
12.02	2.71895
12.03	2.72027
12.04	2.70612
12.05	2.71994
12.06	2.71797
12.07	2.70546
12.08	2.70546
12.09	2.70645
12.1	2.71764
12.11	2.71171
12.12	2.70546
12.13	2.70744
12.14	2.70349
12.15	2.70711
12.16	2.7002
12.17	2.70546
12.18	2.68737
12.19	2.70744
12.2	2.71369
12.21	2.71303
12.22	2.70843
12.23	2.71073
12.24	2.70283
12.25	2.70974
12.26	2.69921
12.27	2.69987
12.28	2.70974
12.29	2.70283
12.3	2.70382
12.31	2.70086
12.32	2.70119
12.33	2.69691
12.34	2.69954
12.35	2.69889
12.36	2.70152
12.37	2.70053
12.38	2.68803
12.39	2.69592
12.4	2.68507
12.41	2.7002
12.42	2.6979
12.43	2.70744
12.44	2.71303
12.45	2.70711
12.46	2.70349
12.47	2.70645
12.48	2.70579
12.49	2.69724
12.5	2.69823
12.51	2.70283
12.52	2.70514
12.53	2.6979
12.54	2.69428
12.55	2.69329
12.56	2.70218
12.57	2.70283
12.58	2.69395
12.59	2.69264
12.6	2.69198
12.61	2.69658
12.62	2.69231
12.63	2.70185
12.64	2.70316
12.65	2.69461
12.66	2.69823
12.67	2.69724
12.68	2.68869
12.69	2.69691
12.7	2.69625
12.71	2.69165
12.72	2.6979
12.73	2.70316
12.74	2.68803
12.75	2.69395
12.76	2.69165
12.77	2.69823
12.78	2.69691
12.79	2.69198
12.8	2.67816
12.81	2.68639
12.82	2.69691
12.83	2.68902
12.84	2.69461
12.85	2.68869
12.86	2.67685
12.87	2.69428
12.88	2.68375
12.89	2.68639
12.9	2.68046
12.91	2.67421
12.92	2.68211
12.93	2.68639
12.94	2.6854
12.95	2.68244
12.96	2.6831
12.97	2.68178
12.98	2.67454
12.99	2.67783
13	2.68507
13.01	2.68704
13.02	2.68244
13.03	2.67454
13.04	2.68178
13.05	2.6831
13.06	2.68178
13.07	2.68441
13.08	2.68013
13.09	2.67421
13.1	2.67915
13.11	2.67652
13.12	2.68606
13.13	2.68671
13.14	2.69099
13.15	2.68342
13.16	2.67454
13.17	2.67948
13.18	2.67619
13.19	2.68145
13.2	2.68013
13.21	2.68145
13.22	2.67652
13.23	2.68408
13.24	2.6877
13.25	2.68803
13.26	2.68704
13.27	2.69
13.28	2.67257
13.29	2.67816
13.3	2.66961
13.31	2.66632
13.32	2.67257
13.33	2.66796
13.34	2.67816
13.35	2.68277
13.36	2.68244
13.37	2.67487
13.38	2.67125
13.39	2.66796
13.4	2.66961
13.41	2.67586
13.42	2.67191
13.43	2.67586
13.44	2.6831
13.45	2.68211
13.46	2.68145
13.47	2.67652
13.48	2.67027
13.49	2.67158
13.5	2.68408
13.51	2.67092
13.52	2.67652
13.53	2.6752
13.54	2.66533
13.55	2.66763
13.56	2.66961
13.57	2.66632
13.58	2.66402
13.59	2.67092
13.6	2.67027
13.61	2.66533
13.62	2.65415
13.63	2.6604
13.64	2.66467
13.65	2.66007
13.66	2.6627
13.67	2.65448
13.68	2.67027
13.69	2.6706
13.7	2.65842
13.71	2.66106
13.72	2.67586
13.73	2.66698
